#Shining_header
#Data type:raman_database
#CAS:Not entered
#Material scientific name:Larderellite
#Manufacturer:Not entered
#Laser model:Not entered
#Spectrometer model:Not entered
#Testing unit:Not entered
#Test time:Not entered
#Other experimental details:Not entered
#Shining_data
110.9664 0.0000000E+00
111.4485 0.7050780
111.9306 1.780945
112.4127 2.744446
112.8948 3.516602
113.3769 3.887634
113.8591 3.882889
114.3412 3.268326
114.8233 3.001709
115.3054 2.489456
115.7875 1.928207
116.2696 1.357864
116.7517 0.7550660
117.2339 0.1943970
117.7160 0.1208950
118.1981 0.2808990
118.6802 9.4131000E-02
119.1623 0.6482390
119.6444 1.702118
120.1266 2.839966
120.6087 4.101929
121.0908 5.264877
121.5729 5.983215
122.0550 6.150970
122.5371 6.049942
123.0193 5.794327
123.5014 5.341858
123.9835 5.158478
124.4656 6.026108
124.9477 7.117783
125.4298 7.582031
125.9120 6.933548
126.3941 5.712891
126.8762 5.179016
127.3583 5.450775
127.8404 6.288528
128.3225 7.796387
128.8047 9.670563
129.2868 11.59308
129.7689 13.46214
130.2510 15.22572
130.7331 16.04100
131.2152 14.47852
131.6974 13.28979
132.1795 13.31651
132.6616 14.32292
133.1437 15.59056
133.6258 16.48964
134.1079 16.92799
134.5901 17.62532
135.0722 18.53371
135.5543 19.80051
136.0364 21.64307
136.5185 23.96356
137.0006 26.49109
137.4828 28.93713
137.9649 31.26614
138.4470 33.36472
138.9291 35.32677
139.4112 37.25439
139.8933 38.95641
140.3755 40.09241
140.8576 41.11395
141.3397 43.22690
141.8218 46.55498
142.3039 50.34258
142.7860 54.12527
143.2681 58.16264
143.7503 63.16443
144.2324 69.05560
144.7145 76.42085
145.1966 85.53244
145.6787 96.42633
146.1608 108.6443
146.6430 122.1869
147.1251 137.2735
147.6072 151.6968
148.0893 168.0193
148.5714 181.6384
149.0535 190.0154
149.5357 192.5014
150.0178 189.7696
150.4999 182.3219
150.9820 168.2234
151.4641 152.9958
151.9462 136.1642
152.4284 119.2805
152.9105 103.1183
153.3926 88.08667
153.8747 74.37546
154.3568 62.42612
154.8389 53.05653
155.3211 44.88753
155.8032 38.07907
156.2853 32.30429
156.7674 27.29672
157.2495 22.92714
157.7316 19.17334
158.2138 15.98314
158.6959 13.56549
159.1780 11.37837
159.6601 9.188049
160.1422 7.123093
160.6243 5.538940
161.1065 4.746414
161.5886 4.560318
162.0707 4.041382
162.5528 2.921951
163.0349 1.761658
163.5170 0.8088840
163.9991 6.2546000E-02
164.4813 0.4429170
164.9634 0.5689390
165.4455 0.4510040
165.9276 0.4341740
166.4097 0.5729680
166.8918 0.8267360
167.3740 1.162643
167.8561 1.599960
168.3382 2.021210
168.8203 2.206161
169.3024 2.305008
169.7845 2.120148
170.2667 1.413193
170.7488 0.4713750
171.2309 2.2280000E-03
171.7130 0.2598570
172.1951 0.5175630
172.6772 0.5013890
173.1594 0.2983700
173.6415 2.4932999E-02
174.1236 0.2726750
174.6057 0.5843810
175.0878 0.8375090
175.5699 1.004364
176.0521 1.121658
176.5342 1.120880
177.0163 1.102554
177.4984 1.260117
177.9805 1.772812
178.4626 2.644379
178.9448 3.230331
179.4269 3.446182
179.9090 3.462280
180.3911 3.052872
180.8732 2.440567
181.3553 2.160019
181.8375 2.737457
182.3196 4.316193
182.8017 5.284622
183.2838 5.356781
183.7659 5.225342
184.2480 5.250488
184.7301 5.415329
185.2123 5.443405
185.6944 5.034271
186.1765 4.103806
186.6586 3.484940
187.1407 3.311584
187.6228 3.345657
188.1050 3.474442
188.5871 3.677582
189.0692 3.859818
189.5513 3.852921
190.0334 3.677917
190.5155 3.810684
190.9977 4.744400
191.4798 5.811722
191.9619 6.184113
192.4440 5.684082
192.9261 4.930618
193.4082 4.304047
193.8904 3.833588
194.3725 3.803864
194.8546 4.732986
195.3367 6.090668
195.8188 6.728455
196.3009 6.255005
196.7831 5.728836
197.2652 6.147751
197.7473 7.164520
198.2294 7.885162
198.7115 7.635574
199.1936 6.660828
199.6758 6.018082
200.1579 5.865356
200.6400 5.884171
201.1221 5.923569
201.6042 5.976761
202.0863 6.040482
202.5685 6.137772
203.0506 6.260651
203.5327 6.284554
204.0148 5.971519
204.4969 5.818298
204.9790 6.180229
205.4612 6.872292
205.9433 7.447296
206.4254 7.491554
206.9075 6.968002
207.3896 6.632332
207.8717 6.640976
208.3539 6.707176
208.8360 6.710899
209.3181 6.691620
209.8002 6.790398
210.2823 7.176857
210.7644 7.920097
211.2466 8.319580
211.7287 8.076218
212.2108 7.805023
212.6929 7.775269
213.1750 7.950363
213.6571 8.116653
214.1393 8.064560
214.6214 7.739021
215.1035 7.590042
215.5856 7.719048
216.0677 7.889145
216.5498 7.933189
217.0320 7.880165
217.5141 7.905548
217.9962 8.201797
218.4783 8.818466
218.9604 9.181190
219.4425 9.165726
219.9247 9.037865
220.4068 8.885925
220.8889 8.735466
221.3710 8.668213
221.8531 8.799187
222.3352 9.141205
222.8174 9.235985
223.2995 8.913536
223.7816 8.492432
224.2637 8.203506
224.7458 8.050262
225.2279 7.900467
225.7100 7.632774
226.1922 7.267471
226.6743 6.962196
227.1564 6.774132
227.6385 6.646851
228.1206 6.531342
228.6027 6.436234
229.0849 6.424370
229.5670 6.562050
230.0491 6.791687
230.5312 6.968285
231.0133 7.197502
231.4954 7.311539
231.9776 6.969330
232.4597 6.074951
232.9418 5.359474
233.4239 5.511871
233.9060 6.107910
234.3881 6.513931
234.8703 6.492844
235.3524 6.284492
235.8345 6.177902
236.3166 6.164230
236.7987 6.296638
237.2808 6.934593
237.7630 7.625969
238.2451 7.779564
238.7272 7.021629
239.2093 5.923347
239.6914 5.456757
240.1735 5.831985
240.6557 6.185738
241.1378 6.094757
241.6199 5.847565
242.1020 5.721329
242.5841 5.826241
243.0662 6.042076
243.5484 6.170914
244.0305 6.198685
244.5126 6.159744
244.9947 6.057938
245.4768 5.910622
245.9589 5.713631
246.4410 5.462296
246.9232 5.201149
247.4053 5.014946
247.8874 4.960480
248.3695 4.840927
248.8516 4.591454
249.3337 4.300201
249.8159 3.992630
250.2980 3.679619
250.7801 3.428215
251.2622 3.362671
251.7443 3.555923
252.2264 3.790688
252.7086 4.244446
253.1907 4.613045
253.6728 4.613068
254.1549 4.194313
254.6370 3.601875
255.1191 3.228630
255.6013 3.256828
256.0834 3.118553
256.5655 2.641403
257.0476 2.134033
257.5297 1.741859
258.0118 1.521843
258.4940 1.507011
258.9761 1.762276
259.4582 2.404732
259.9403 3.038467
260.4224 3.958130
260.9045 4.659706
261.3867 4.623085
261.8688 3.915863
262.3509 3.189644
262.8330 3.247757
263.3151 4.453423
263.7972 5.120544
264.2794 4.829735
264.7615 4.455925
265.2436 4.492508
265.7257 4.941048
266.2078 5.497299
266.6899 5.852402
267.1721 5.942474
267.6542 6.252319
268.1363 6.881866
268.6184 7.600563
269.1005 8.352325
269.5826 9.094894
270.0648 9.726341
270.5469 10.13474
271.0290 10.30648
271.5111 10.82916
271.9932 11.85663
272.4753 12.97356
272.9575 13.90750
273.4396 14.76933
273.9217 15.88313
274.4038 17.50561
274.8859 19.58698
275.3680 21.58895
275.8501 23.55085
276.3322 25.42556
276.8144 27.02429
277.2965 28.52827
277.7786 30.38065
278.2607 32.88345
278.7428 35.82730
279.2249 38.31728
279.7071 40.20869
280.1892 41.93831
280.6713 43.88373
281.1534 45.73115
281.6355 46.87063
282.1176 47.01935
282.5998 46.37400
283.0819 45.36150
283.5640 44.03506
284.0461 42.29723
284.5282 39.88788
285.0103 37.13935
285.4925 34.56290
285.9746 32.33883
286.4567 30.21703
286.9388 27.66175
287.4209 24.42191
287.9030 21.66558
288.3852 19.80033
288.8673 18.44041
289.3494 17.17989
289.8315 15.92784
290.3136 14.70666
290.7957 13.52776
291.2779 12.39686
291.7600 11.34351
292.2421 10.27013
292.7242 9.329269
293.2063 8.715874
293.6884 8.447891
294.1706 8.322601
294.6527 8.193695
295.1348 8.057648
295.6169 7.836075
296.0990 7.427505
296.5811 7.001816
297.0633 6.688759
297.5454 6.493271
298.0275 6.341301
298.5096 6.187645
298.9917 6.031998
299.4738 5.883369
299.9560 5.780113
300.4381 5.645531
300.9202 5.361679
301.4023 4.979889
301.8844 4.714058
302.3665 4.652016
302.8487 4.811104
303.3308 5.209610
303.8129 5.983650
304.2950 6.748535
304.7771 7.381645
305.2592 7.879967
305.7414 8.209549
306.2235 8.320656
306.7056 8.322487
307.1877 8.420341
307.6698 8.615990
308.1519 8.858597
308.6341 9.141151
309.1162 9.459473
309.5983 9.847755
310.0804 10.34428
310.5625 10.78048
311.0446 10.88438
311.5268 10.65531
312.0089 10.39386
312.4910 10.12453
312.9731 9.868553
313.4552 9.666771
313.9373 9.527550
314.4195 9.376160
314.9016 9.152313
315.3837 8.852196
315.8658 8.486969
316.3479 8.169083
316.8300 7.708618
317.3121 6.779617
317.7943 5.424431
318.2764 4.287018
318.7585 3.857613
319.2406 4.006126
319.7227 3.953766
320.2048 3.624954
320.6870 3.178040
321.1691 2.592590
321.6512 1.933937
322.1333 1.447777
322.6154 1.293945
323.0975 1.336014
323.5797 1.232704
324.0618 0.9506000
324.5439 0.6302190
325.0260 0.2182540
325.5081 0.1849900
325.9902 0.3379520
326.4724 0.1187970
326.9545 0.1988910
327.4366 0.1510700
327.9187 0.3187710
328.4008 0.7312930
328.8829 1.093826
329.3651 1.309494
329.8472 1.138260
330.3293 0.5384670
330.8114 2.1289999E-03
331.2935 0.1005550
331.7756 0.9085920
332.2578 1.288216
332.7399 0.8784410
333.2220 0.2769010
333.7041 0.1141280
334.1862 0.2830050
334.6683 0.3834990
335.1505 0.5172350
335.6326 0.6721190
336.1147 0.7662510
336.5968 0.9556350
337.0789 0.9679790
337.5610 0.4408040
338.0432 0.4096830
338.5253 0.9642410
339.0074 0.8778460
339.4895 0.3643490
339.9716 0.1112440
340.4537 0.4219210
340.9359 0.5253600
341.4180 5.4214001E-02
341.9001 0.6591800
342.3822 1.210800
342.8643 1.484680
343.3464 1.546135
343.8286 1.444145
344.3107 1.042526
344.7928 0.9081040
345.2749 1.222549
345.7570 1.684784
346.2391 2.119385
346.7213 2.506546
347.2034 2.822678
347.6855 3.001976
348.1676 3.006386
348.6497 3.125389
349.1318 3.676239
349.6140 4.036446
350.0961 3.879181
350.5782 3.324387
351.0603 2.616821
351.5424 1.863930
352.0245 1.119499
352.5067 0.6321260
352.9888 0.6069030
353.4709 0.6328740
353.9530 0.6732330
354.4351 0.6848300
354.9172 0.6256260
355.3994 0.4865110
355.8815 0.3250200
356.3636 0.2212370
356.8457 0.1121670
357.3278 0.2120440
357.8099 0.7598270
358.2920 1.320099
358.7741 1.584625
359.2563 1.540207
359.7384 1.352242
360.2205 1.155655
360.7026 0.9314880
361.1847 0.9190440
361.6668 1.322342
362.1490 1.698730
362.6311 1.918922
363.1132 2.001663
363.5953 1.996124
364.0774 1.927696
364.5595 1.814316
365.0417 1.704803
365.5238 1.362885
366.0059 1.361656
366.4880 2.102417
366.9701 3.029655
367.4522 3.569122
367.9344 3.551125
368.4165 3.270424
368.8986 3.172386
369.3807 3.316154
369.8628 3.496521
370.3449 3.719994
370.8271 3.971214
371.3092 4.237480
371.7913 4.523781
372.2734 4.800896
372.7555 5.017365
373.2376 5.199768
373.7198 5.528847
374.2019 6.322464
374.6840 6.906601
375.1661 6.982117
375.6482 6.737061
376.1303 6.463821
376.6125 6.306122
377.0946 6.185616
377.5767 5.917313
378.0588 5.457756
378.5409 4.974335
379.0230 4.455246
379.5052 3.966461
379.9873 3.560944
380.4694 3.248047
380.9515 2.999611
381.4336 2.797005
381.9157 2.639404
382.3979 2.509666
382.8800 2.383789
383.3621 2.310516
383.8442 2.365509
384.3263 2.520508
384.8084 2.627724
385.2906 2.589417
385.7727 2.442604
386.2548 2.274178
386.7369 2.085037
387.2190 1.877678
387.7011 1.657639
388.1833 1.451553
388.6654 1.257401
389.1475 1.031197
389.6296 0.8313220
390.1117 0.7756270
390.5938 0.8756030
391.0760 0.9789810
391.5581 1.040794
392.0402 1.037613
392.5223 0.9558790
393.0044 0.8001170
393.4865 0.5729140
393.9687 0.1292500
394.4508 0.3381730
394.9329 0.4368900
395.4150 7.8902997E-02
395.8971 0.2586440
396.3792 5.9517000E-02
396.8614 0.5790330
397.3435 0.7948230
397.8256 0.2405930
398.3077 0.4305340
398.7898 0.8588330
399.2719 1.084534
399.7540 1.200684
400.2361 1.241135
400.7183 1.225502
401.2004 1.214355
401.6825 1.269791
402.1646 1.223274
402.6467 1.011375
403.1288 0.6979830
403.6110 0.2855830
404.0931 0.2041170
404.5752 0.5853730
405.0573 0.6096120
405.5394 0.1689070
406.0215 0.1011810
406.5037 0.1319730
406.9858 8.2572997E-02
407.4679 4.6280000E-02
407.9500 0.1933060
408.4321 0.2099610
408.9142 1.6829999E-02
409.3964 0.3956070
409.8785 0.4997100
410.3606 7.5966001E-02
410.8427 0.4054950
411.3248 0.2377400
411.8069 0.1083680
412.2891 0.3340000
412.7712 0.3594820
413.2533 0.2964710
413.7354 0.2921980
414.2175 0.3658370
414.6996 0.4189990
415.1818 0.3892970
415.6639 0.4060520
416.1460 0.6034550
416.6281 0.8901370
417.1102 1.035301
417.5923 0.8439790
418.0745 0.4489520
418.5566 0.3206560
419.0387 0.5764160
419.5208 0.8463060
420.0029 1.130867
420.4850 1.316322
420.9672 1.230904
421.4493 0.8260190
421.9314 0.3850330
422.4135 0.2133100
422.8956 0.2984010
423.3777 0.3608930
423.8599 0.3077700
424.3420 0.3002400
424.8241 0.5477680
425.3062 0.9614790
425.7883 1.212616
426.2704 1.073456
426.7526 0.7338870
427.2347 0.3961330
427.7168 4.6248998E-02
428.1989 3.7246998E-02
428.6810 0.5157700
429.1631 1.319412
429.6453 1.462471
430.1274 0.5379100
430.6095 0.1283950
431.0916 0.4737090
431.5737 1.744202
432.0558 2.439499
432.5380 2.213966
433.0201 1.623886
433.5022 1.249062
433.9843 1.110489
434.4664 1.139511
434.9485 1.610802
435.4307 2.013351
435.9128 1.900497
436.3949 1.397980
436.8770 0.9806520
437.3591 0.9334720
437.8412 1.160683
438.3234 1.300758
438.8055 1.361954
439.2876 1.321785
439.7697 0.8995510
440.2518 0.5338290
440.7339 0.8091200
441.2160 1.751930
441.6982 2.715843
442.1803 2.904236
442.6624 2.164131
443.1445 1.772675
443.6266 1.989067
444.1087 2.293472
444.5909 2.669044
445.0730 2.999344
445.5551 3.084839
446.0372 2.795868
446.5193 2.337631
447.0014 2.190849
447.4836 2.477669
447.9657 2.714455
448.4478 2.666641
448.9299 2.650200
449.4120 2.947266
449.8941 3.531197
450.3763 4.048935
450.8584 4.128082
451.3405 3.896446
451.8226 3.938553
452.3047 4.382729
452.7868 4.766357
453.2690 4.658600
453.7511 4.373100
454.2332 4.371582
454.7153 4.846649
455.1974 5.383820
455.6795 5.599121
456.1617 5.585526
456.6438 5.781380
457.1259 6.375168
457.6080 7.096573
458.0901 7.591225
458.5722 7.865654
459.0544 8.129585
459.5365 8.576942
460.0186 8.915146
460.5007 8.750130
460.9828 8.170235
461.4649 7.722054
461.9471 7.748505
462.4292 8.120918
462.9113 8.309677
463.3934 8.219246
463.8755 8.133827
464.3576 8.028572
464.8398 7.953362
465.3219 7.926781
465.8040 7.963890
466.2861 8.119446
466.7682 8.461670
467.2503 9.001274
467.7325 9.643295
468.2146 10.73456
468.6967 11.50627
469.1788 11.65385
469.6609 11.41804
470.1430 11.13503
470.6252 10.95184
471.1073 10.75546
471.5894 10.34682
472.0715 9.703026
472.5536 8.973549
473.0357 8.015045
473.5179 7.116104
474.0000 6.448288
474.4821 5.996048
474.9642 5.640785
475.4463 5.344795
475.9284 5.087959
476.4106 4.789757
476.8927 4.431419
477.3748 4.240173
477.8569 4.447075
478.3390 4.810471
478.8211 4.955513
479.3033 4.876961
479.7854 4.684761
480.2675 4.194183
480.7496 3.643059
481.2317 3.510826
481.7138 3.944695
482.1959 4.520103
482.6780 4.865906
483.1602 4.980400
483.6423 5.185562
484.1244 5.578369
484.6065 5.946922
485.0886 6.171616
485.5707 6.331802
486.0529 6.578590
486.5350 6.986496
487.0171 7.476906
487.4992 7.942062
487.9813 8.319321
488.4634 8.836357
488.9456 9.606712
489.4277 10.46074
489.9098 11.23361
490.3919 12.02217
490.8740 13.05774
491.3561 14.49236
491.8383 16.22008
492.3204 17.96271
492.8025 19.72069
493.2846 21.48724
493.7667 23.33163
494.2488 25.11579
494.7310 26.83385
495.2131 28.44408
495.6952 29.74011
496.1773 30.65628
496.6594 31.13308
497.1415 30.94798
497.6237 30.03307
498.1058 28.74100
498.5879 27.24575
499.0700 25.47001
499.5521 23.23541
500.0342 20.26357
500.5164 17.47654
500.9985 15.39575
501.4806 13.77418
501.9627 12.06283
502.4448 10.15054
502.9269 8.513298
503.4091 7.678131
503.8912 7.675919
504.3733 7.433640
504.8554 6.811485
505.3375 6.136238
505.8196 5.535645
506.3018 4.952477
506.7839 4.224052
507.2660 3.306870
507.7481 2.454124
508.2302 2.098015
508.7123 2.410797
509.1945 2.595551
509.6766 2.686951
510.1587 2.613663
510.6408 2.174957
511.1229 1.572701
511.6050 1.191635
512.0872 1.250641
512.5693 1.530479
513.0514 1.643753
513.5335 1.572044
514.0156 1.473091
514.4977 1.363487
514.9799 1.252556
515.4620 1.151443
515.9441 1.057945
516.4262 0.9581150
516.9083 0.8402790
517.3904 0.7152940
517.8726 0.5983200
518.3547 0.4885860
518.8368 0.3606110
519.3189 0.1736370
519.8010 3.9220001E-03
520.2831 3.3585001E-02
520.7653 0.3983150
521.2474 0.6101840
521.7295 0.3555370
522.2116 7.7660002E-02
522.6937 0.2367480
523.1758 0.7928090
523.6580 1.364922
524.1401 1.684708
524.6222 1.782326
525.1043 1.809029
525.5864 1.658615
526.0685 1.591354
526.5507 1.730659
527.0328 1.887810
527.5149 1.939743
527.9970 1.855316
528.4791 1.625130
528.9612 1.156960
529.4434 0.5229110
529.9255 0.1828920
530.4076 0.2402650
530.8897 0.3557360
531.3718 0.3564300
531.8539 0.3557130
532.3361 0.5418170
532.8182 0.9925080
533.3003 1.273376
533.7824 0.8832550
534.2645 0.1635360
534.7466 4.9254999E-02
535.2288 0.3930280
535.7109 0.7561340
536.1930 0.4077530
536.6751 0.5052110
537.1572 1.025078
537.6393 1.129921
538.1215 0.9138570
538.6036 6.3446000E-02
539.0857 0.9399030
539.5678 1.490189
540.0499 1.469475
540.5320 1.155731
541.0142 0.8178410
541.4963 0.4545140
541.9784 9.8755002E-02
542.4604 0.4019620
542.9426 0.6978610
543.4247 0.6304630
543.9068 0.3660580
544.3889 9.0248004E-02
544.8710 0.1476290
545.3531 0.4265290
545.8353 0.8751830
546.3174 1.472351
546.7995 1.971390
547.2816 2.405663
547.7637 2.643265
548.2458 2.369461
548.7280 1.891441
549.2101 1.721977
549.6922 2.035103
550.1743 2.475471
550.6564 2.849190
551.1385 3.186073
551.6207 3.598480
552.1028 4.115089
552.5849 4.511383
553.0670 4.543594
553.5491 4.209488
554.0313 4.004318
554.5134 4.149872
554.9955 4.141060
555.4776 3.692413
555.9597 3.078758
556.4418 2.605789
556.9240 2.365463
557.4061 2.333633
557.8882 2.554138
558.3703 3.046013
558.8524 3.211342
559.3345 2.824333
559.8167 2.420418
560.2988 2.121689
560.7809 1.933250
561.2630 1.882072
561.7451 1.984550
562.2272 2.121040
562.7094 2.226730
563.1915 2.284637
563.6736 2.195366
564.1557 1.907883
564.6378 1.680450
565.1199 1.748680
565.6021 2.031830
566.0842 2.154587
566.5663 2.054718
567.0484 1.886879
567.5305 1.622253
568.0126 1.358200
568.4948 1.244957
568.9769 1.293289
569.4590 1.344559
569.9411 1.223610
570.4232 0.9536740
570.9053 1.006294
571.3875 1.906151
571.8696 2.415451
572.3517 2.027733
572.8338 1.382736
573.3159 1.066818
573.7980 1.168938
574.2802 1.402596
574.7623 1.613571
575.2444 1.759666
575.7265 1.575943
576.2086 0.9387050
576.6907 0.5061800
577.1729 0.7532500
577.6550 1.299110
578.1371 1.516632
578.6192 1.330589
579.1013 1.119774
579.5834 0.9882200
580.0656 0.9260710
580.5477 0.9594570
581.0298 1.070938
581.5119 1.162376
581.9940 1.167488
582.4761 1.111053
582.9583 1.076248
583.4404 1.028976
583.9225 1.057693
584.4046 1.274658
584.8867 1.469688
585.3688 1.470779
585.8510 1.319832
586.3331 1.184059
586.8152 1.174828
587.2973 1.230240
587.7794 1.196404
588.2615 1.049927
588.7437 0.9897310
589.2258 1.089584
589.7079 1.264946
590.1900 1.449669
590.6721 1.642593
591.1542 1.821136
591.6364 2.104179
592.1185 2.260750
592.6006 1.908661
593.0827 1.264824
593.5648 1.027153
594.0469 1.479004
594.5291 2.051254
595.0112 1.940552
595.4933 0.9343110
595.9754 0.2872160
596.4575 0.1724470
596.9396 0.2340390
597.4218 0.4928890
597.9039 0.8005140
598.3860 0.9577870
598.8681 0.8985670
599.3502 0.7394330
599.8323 0.5927200
600.3145 0.4358140
600.7966 0.3462300
601.2787 0.3954850
601.7608 0.4492950
602.2429 0.3737640
602.7250 0.2527620
603.2072 0.2270280
603.6893 0.3207170
604.1714 0.4918820
604.6535 0.8561860
605.1356 1.224678
605.6177 1.236542
606.0999 0.8984600
606.5820 0.6012650
607.0641 0.6531520
607.5462 0.9720760
608.0283 1.173431
608.5104 1.168068
608.9926 1.173241
609.4747 1.182930
609.9568 1.197029
610.4389 1.263313
610.9210 1.355629
611.4031 1.373528
611.8853 1.216141
612.3674 1.006767
612.8495 1.066574
613.3316 1.433945
613.8137 1.602341
614.2958 1.331093
614.7780 0.9879840
615.2601 0.9459000
615.7422 1.141586
616.2243 1.333969
616.7064 1.576149
617.1885 1.737473
617.6707 1.566010
618.1528 1.279167
618.6349 1.391342
619.1170 2.041504
619.5991 2.796867
620.0812 3.151169
620.5634 3.044724
621.0455 2.966011
621.5276 3.019249
622.0097 3.011269
622.4918 2.806618
622.9739 2.564575
623.4561 2.493759
623.9382 2.607658
624.4203 2.682938
624.9023 2.414894
625.3845 1.978844
625.8666 1.940605
626.3487 2.358536
626.8308 2.568939
627.3129 2.143684
627.7950 1.455482
628.2772 1.273537
628.7593 1.722824
629.2414 1.976807
629.7235 1.804169
630.2056 1.496811
630.6877 1.171272
631.1699 0.8844450
631.6520 0.7371140
632.1341 0.7765430
632.6162 0.8927380
633.0983 0.8900680
633.5804 0.7365720
634.0626 0.6234210
634.5447 0.5496980
635.0268 0.5245060
635.5089 0.5618130
635.9910 0.6393360
636.4731 0.7145390
636.9553 0.7642670
637.4374 0.8710710
637.9195 1.237114
638.4016 1.656242
638.8837 1.671410
639.3658 1.245750
639.8480 0.8003080
640.3301 0.5998460
640.8122 0.5908510
641.2943 0.5937810
641.7764 0.5437390
642.2585 0.6079710
642.7407 0.9685970
643.2228 1.280952
643.7049 1.228828
644.1870 0.9462200
644.6691 0.8318630
645.1512 1.123039
645.6334 1.542145
646.1155 1.617767
646.5976 1.354095
647.0797 1.113876
647.5618 0.8679580
648.0439 0.7301180
648.5261 0.9498900
649.0082 1.369385
649.4903 1.478821
649.9724 1.055534
650.4545 0.6038890
650.9366 0.2986830
651.4188 8.3365999E-02
651.9009 0.1536100
652.3830 0.3919830
652.8651 0.4356160
653.3472 0.1091610
653.8293 0.4563140
654.3115 0.7697750
654.7936 0.7176360
655.2757 0.6889040
655.7578 0.8213730
656.2399 0.9124530
656.7220 0.7679600
657.2042 0.4818040
657.6863 0.3523790
658.1684 0.5543290
658.6505 0.8536760
659.1326 1.120766
659.6147 1.306328
660.0969 1.194214
660.5790 0.7276840
661.0611 0.3106080
661.5432 0.3417660
662.0253 0.7576980
662.5074 0.8672710
662.9896 0.2776720
663.4717 0.1002270
663.9538 9.0709999E-03
664.4359 0.1833720
664.9180 0.1727140
665.4001 2.3094000E-02
665.8823 0.2008590
666.3644 0.2487490
666.8465 0.1852650
667.3286 1.1497000E-02
667.8107 0.3345110
668.2928 0.5145720
668.7750 0.4504170
669.2571 0.3285450
669.7392 0.3364330
670.2213 0.4543300
670.7034 0.4808960
671.1855 0.3929290
671.6677 0.2373810
672.1498 0.1261750
672.6319 0.4579090
673.1140 0.4447480
673.5961 9.6190996E-02
674.0782 0.3158190
674.5604 0.6057280
675.0425 0.7717900
675.5246 0.8092580
676.0067 0.7151570
676.4888 0.4894560
676.9709 4.7805998E-02
677.4531 0.5121380
677.9352 0.5140080
678.4173 0.1833800
678.8994 1.1665000E-02
679.3815 0.1476670
679.8636 0.3218610
680.3458 0.3500290
680.8279 0.2491910
681.3100 3.1592999E-02
681.7921 0.4606400
682.2742 0.7853240
682.7563 0.7803960
683.2385 0.5204090
683.7206 0.3697130
684.2027 0.3469010
684.6848 0.3921660
685.1669 0.6272660
685.6490 0.8130260
686.1312 0.7445530
686.6133 0.5066530
687.0954 0.3679350
687.5775 0.4694290
688.0596 0.6299590
688.5417 0.7112960
689.0239 0.7256090
689.5060 0.6443860
689.9881 0.4703520
690.4702 0.4480900
690.9523 0.8284610
691.4344 1.474670
691.9166 1.687920
692.3987 1.012131
692.8808 0.6309590
693.3629 0.8963930
693.8450 1.183662
694.3271 1.036339
694.8093 0.5989380
695.2914 0.3130800
695.7735 0.4004440
696.2556 0.6127090
696.7377 0.6861340
697.2198 0.6538090
697.7020 0.6320340
698.1841 0.6377110
698.6662 0.6518100
699.1483 0.6690750
699.6304 0.6787110
700.1125 0.6389390
700.5947 0.4463350
701.0768 0.3673400
701.5589 0.4904400
702.0410 0.6500320
702.5231 0.8436430
703.0052 0.9786610
703.4874 0.8211210
703.9695 0.2358020
704.4516 0.3355710
704.9337 0.2103580
705.4158 0.4393160
705.8979 0.7336350
706.3801 0.5491710
706.8622 0.2921450
707.3442 0.1378330
707.8264 0.1128620
708.3085 0.3082660
708.7906 0.8252260
709.2727 1.287720
709.7548 1.746994
710.2369 2.048592
710.7191 2.022713
711.2012 1.834801
711.6833 1.713333
712.1654 1.736130
712.6475 1.848869
713.1296 1.995056
713.6118 2.178894
714.0939 2.464577
714.5760 2.889267
715.0581 3.171761
715.5402 3.121330
716.0223 2.923157
716.5045 2.858238
716.9866 2.911118
717.4687 3.152611
717.9508 3.793221
718.4329 4.405563
718.9150 4.829735
719.3972 5.068672
719.8793 5.094124
720.3614 4.922462
720.8435 4.713234
721.3256 4.564926
721.8077 4.525795
722.2899 4.812881
722.7720 5.489723
723.2541 5.913239
723.7362 5.775986
724.2183 5.453987
724.7004 5.401024
725.1826 5.618080
725.6647 5.712959
726.1468 5.533112
726.6289 5.380974
727.1110 5.329819
727.5931 5.385574
728.0753 5.628845
728.5574 6.009499
729.0395 6.275208
729.5216 6.185966
730.0037 5.952133
730.4858 6.167671
730.9680 6.878700
731.4501 7.334267
731.9322 7.309029
732.4143 7.129295
732.8964 7.039383
733.3785 7.021408
733.8607 6.978027
734.3428 6.928864
734.8249 6.815605
735.3070 6.602295
735.7891 6.330643
736.2712 6.014626
736.7534 5.661415
737.2355 5.254105
737.7176 4.779411
738.1997 4.373070
738.6818 4.261612
739.1639 4.428787
739.6461 4.643127
740.1282 4.938881
740.6103 5.016083
741.0924 4.588486
741.5745 3.920044
742.0566 3.654259
742.5388 3.988197
743.0209 3.996895
743.5030 3.238457
743.9851 2.517662
744.4672 2.222427
744.9493 2.264946
745.4315 2.554840
745.9136 3.016411
746.3957 3.373161
746.8778 3.253540
747.3599 2.830185
747.8420 2.609840
748.3242 2.594208
748.8063 2.772720
749.2884 3.207359
749.7705 3.671127
750.2526 3.896507
750.7347 3.868240
751.2169 3.836403
751.6990 3.840263
752.1811 3.790207
752.6632 3.525497
753.1453 3.299492
753.6274 3.491188
754.1096 3.965973
754.5917 4.172188
755.0738 3.685310
755.5559 3.035629
756.0380 2.951729
756.5201 3.319412
757.0023 3.771309
757.4844 4.275246
757.9665 4.552902
758.4486 4.331139
758.9307 3.817795
759.4128 3.664116
759.8950 4.278099
760.3771 4.536308
760.8592 4.103218
761.3413 3.691544
761.8234 3.577202
762.3055 3.707062
762.7877 4.125610
763.2698 4.861893
763.7519 5.415703
764.2340 5.248360
764.7161 4.763748
765.1982 4.547829
765.6804 4.614014
766.1625 4.872818
766.6446 5.292107
767.1267 5.880859
767.6088 6.627869
768.0909 7.557785
768.5731 8.281998
769.0552 8.721962
769.5373 9.084854
770.0194 9.185493
770.5015 9.410782
770.9836 10.04079
771.4658 11.07295
771.9479 12.39159
772.4300 14.00896
772.9121 15.82893
773.3942 17.85442
773.8763 20.00156
774.3585 22.11584
774.8406 24.19688
775.3227 26.45618
775.8048 29.09756
776.2869 31.75329
776.7690 33.60057
777.2512 34.64324
777.7333 34.88588
778.2154 34.27449
778.6975 32.95055
779.1796 30.69447
779.6617 27.88283
780.1439 25.10101
780.6260 22.28328
781.1081 19.79452
781.5902 17.86989
782.0723 16.15269
782.5544 14.33098
783.0366 12.57811
783.5187 11.28139
784.0008 10.48347
784.4829 9.789627
784.9650 8.812447
785.4471 7.669968
785.9293 6.685486
786.4114 5.874870
786.8935 5.358292
787.3756 5.215736
787.8577 5.154350
788.3398 4.890991
788.8220 4.461426
789.3040 4.176407
789.7861 4.225769
790.2682 4.138992
790.7504 3.873383
791.2325 3.469902
791.7146 2.778954
792.1967 2.005905
792.6788 1.584938
793.1609 1.703758
793.6431 1.925133
794.1252 1.894112
794.6073 1.692619
795.0894 1.433121
795.5715 1.137688
796.0536 0.8908000
796.5358 0.7251280
797.0179 0.6351550
797.5000 0.6381680
797.9821 0.7677310
798.4642 0.6876910
798.9464 0.1979520
799.4285 0.1062850
799.9106 0.1319270
800.3927 0.4422150
800.8748 0.4587780
801.3569 0.2270130
801.8391 2.0362999E-02
802.3212 0.1936720
802.8033 0.2277680
803.2854 0.1762390
803.7675 0.7408450
804.2496 1.241058
804.7318 1.584641
805.2139 1.593094
805.6960 1.162605
806.1781 0.5624690
806.6602 0.1862260
807.1423 3.7498001E-02
807.6245 0.1481250
808.1066 0.5899120
808.5887 0.9351200
809.0708 1.002396
809.5529 0.8616870
810.0350 0.5610500
810.5172 4.2824000E-02
810.9993 0.2356340
811.4814 3.1837001E-02
811.9635 0.1023330
812.4456 8.5143998E-02
812.9277 0.3338010
813.4099 0.3775330
813.8920 0.2199550
814.3741 3.8872000E-02
814.8562 0.1058580
815.3383 0.1786500
815.8204 3.6090000E-03
816.3026 0.2376330
816.7847 1.1673000E-02
817.2668 0.6687240
817.7489 1.124901
818.2310 0.9469600
818.7131 0.4563670
819.1953 0.2850190
819.6774 0.4954990
820.1595 0.6312030
820.6416 0.6790010
821.1237 0.6749570
821.6058 0.5546570
822.0880 0.4437100
822.5701 0.5697480
823.0522 0.9160840
823.5343 0.9749150
824.0164 0.2517700
824.4985 0.3054500
824.9807 0.1171040
825.4628 0.3433150
825.9449 0.5300900
826.4270 0.4464720
826.9091 0.4493640
827.3912 0.7699430
827.8734 1.115685
828.3555 0.9867400
828.8376 0.5191040
829.3197 0.3188020
829.8018 0.4436650
830.2839 0.5197680
830.7661 0.3396610
831.2482 7.7239998E-02
831.7303 1.6190000E-02
832.2124 0.1751560
832.6945 0.4226000
833.1766 0.9877850
833.6588 1.269661
834.1409 0.8933030
834.6230 0.3901670
835.1051 0.1799620
835.5872 0.2447430
836.0693 0.3570560
836.5515 0.5101700
837.0336 0.6037220
837.5157 0.5048680
837.9978 0.3715060
838.4799 0.4518890
838.9620 0.6649320
839.4442 0.6978610
839.9263 0.4013520
840.4084 3.0609000E-02
840.8905 6.5788001E-02
841.3726 7.5005002E-02
841.8547 0.3083340
842.3369 0.6499630
842.8190 0.7261580
843.3011 0.3202360
843.7832 0.1404720
844.2653 0.2258450
844.7474 8.2170004E-03
845.2296 0.3173750
845.7117 0.9717480
846.1938 1.296051
846.6759 0.9819340
847.1580 0.5679090
847.6401 0.3481140
848.1223 0.2965160
848.6044 0.2934420
849.0865 0.2909850
849.5686 0.4154890
850.0507 0.9594500
850.5328 1.485069
851.0150 1.458069
851.4971 1.061668
851.9792 0.7259220
852.4613 0.6014940
852.9434 0.6946260
853.4255 1.140625
853.9077 1.698616
854.3898 1.427200
854.8719 0.3267970
855.3540 0.2673800
855.8361 2.5100000E-03
856.3182 0.4277190
856.8004 0.5248490
857.2825 0.3788300
857.7646 0.2928770
858.2467 0.3202970
858.7288 0.2836760
859.2109 3.5271000E-02
859.6931 0.1034700
860.1752 6.8412997E-02
860.6573 0.3560560
861.1394 0.5619580
861.6215 0.6467510
862.1036 0.5965190
862.5858 0.2418140
863.0679 7.2823003E-02
863.5500 7.2884001E-02
864.0321 9.3460001E-02
864.5142 0.2594990
864.9963 0.3800740
865.4785 0.4139710
865.9606 0.3300630
866.4427 0.2071840
866.9248 0.1663360
867.4069 0.1945650
867.8890 0.2422260
868.3712 0.3084410
868.8533 0.2813800
869.3354 0.1121290
869.8175 5.9570000E-02
870.2996 2.4162000E-02
870.7817 0.2093120
871.2639 0.3599090
871.7459 0.4115070
872.2280 0.4424970
872.7101 0.3786160
873.1923 0.3621140
873.6744 0.5088500
874.1565 0.7542420
874.6386 0.9921880
875.1207 1.183182
875.6028 1.375732
876.0850 1.550087
876.5671 1.766182
877.0492 2.242615
877.5313 2.725128
878.0134 2.705544
878.4955 2.129150
878.9777 1.522018
879.4598 1.208954
879.9419 1.201767
880.4240 1.829361
880.9061 2.793831
881.3882 2.815063
881.8704 1.748642
882.3525 0.7530360
882.8346 0.6155240
883.3167 0.9716490
883.7988 1.089035
884.2809 0.9459380
884.7631 0.7063290
885.2452 0.2859570
885.7273 2.0760000E-02
886.2094 7.5790003E-02
886.6915 1.2123000E-02
887.1736 3.0379999E-02
887.6558 5.4947000E-02
888.1379 0.1153110
888.6200 0.3221360
889.1021 0.4100420
889.5842 0.1416400
890.0663 7.8093998E-02
890.5485 0.1555790
891.0306 0.6134340
891.5127 0.7948070
891.9948 0.5541690
892.4769 0.2737350
892.9590 0.2130660
893.4412 0.2210460
893.9233 0.1313170
894.4054 1.3588000E-02
894.8875 0.1370010
895.3696 0.2092510
895.8517 0.1821590
896.3339 6.5310001E-03
896.8160 0.2437820
897.2981 0.4404600
897.7802 0.5804440
898.2623 0.6218110
898.7444 0.5491030
899.2266 0.4928890
899.7087 0.5269550
900.1908 0.5166240
900.6729 0.1983030
901.1550 0.4643400
901.6371 0.6098400
902.1193 8.1313998E-02
902.6014 0.7419130
903.0835 1.377365
903.5656 1.738899
904.0477 1.488647
904.5298 0.8618620
905.0120 0.4504550
905.4941 0.3255160
905.9762 0.3940580
906.4583 0.8088230
906.9404 1.227188
907.4225 1.430794
907.9047 1.515587
908.3868 1.673035
908.8689 1.899582
909.3510 1.949104
909.8331 1.552132
910.3152 1.116295
910.7974 1.080780
911.2795 1.292282
911.7616 1.528618
912.2437 1.732742
912.7258 1.800659
913.2079 1.659012
913.6901 1.525826
914.1722 1.697594
914.6543 2.077988
915.1364 2.079552
915.6185 1.680214
916.1006 1.451889
916.5828 1.547287
917.0649 1.791534
917.5470 2.055298
918.0291 2.359802
918.5112 2.713112
918.9933 3.157578
919.4755 3.547935
919.9576 3.991943
920.4397 4.225235
920.9218 3.820824
921.4039 3.358078
921.8860 3.575523
922.3682 4.437706
922.8503 5.053703
923.3324 4.996460
923.8145 5.090858
924.2966 5.715515
924.7787 6.444481
925.2609 6.886589
925.7430 7.178497
926.2251 7.668159
926.7072 8.460732
927.1893 9.312607
927.6714 10.02127
928.1536 10.74021
928.6357 11.67863
929.1178 12.72137
929.5999 13.68137
930.0820 14.52077
930.5641 15.26246
931.0463 15.92252
931.5284 16.48655
932.0105 16.93657
932.4926 17.26734
932.9747 17.46750
933.4568 17.53408
933.9390 17.37424
934.4211 16.93282
934.9032 16.48817
935.3853 16.36456
935.8674 16.47701
936.3495 16.46987
936.8317 16.33008
937.3138 16.10652
937.7959 15.72264
938.2780 15.41873
938.7601 15.19843
939.2422 15.24648
939.7244 16.03205
940.2065 17.79870
940.6886 18.85196
941.1707 18.72782
941.6528 18.55506
942.1349 18.47414
942.6171 18.47823
943.0992 18.78411
943.5813 19.13448
944.0634 18.84127
944.5455 17.59469
945.0276 16.41893
945.5098 15.81316
945.9919 15.24349
946.4740 14.42892
946.9561 13.40098
947.4382 12.11075
947.9203 10.64776
948.4025 9.393227
948.8846 8.581924
949.3667 7.918144
949.8488 7.082779
950.3309 6.227875
950.8130 5.568817
951.2952 5.106598
951.7773 4.759201
952.2594 4.499527
952.7415 4.411659
953.2236 4.684731
953.7057 5.071060
954.1878 4.877220
954.6699 4.193680
955.1520 3.669632
955.6342 3.394348
956.1163 3.167427
956.5984 2.878189
957.0805 2.586861
957.5626 2.397049
958.0447 2.319702
958.5269 2.324944
959.0090 2.422615
959.4911 2.410606
959.9732 2.278473
960.4553 2.042442
960.9374 1.687614
961.4196 1.292488
961.9017 1.083450
962.3838 1.112762
962.8659 1.167809
963.3480 1.366203
963.8301 1.426849
964.3123 1.063828
964.7944 0.7186740
965.2765 0.8532030
965.7586 1.345558
966.2407 1.547989
966.7228 1.156296
967.2050 0.9303740
967.6871 1.246414
968.1692 1.538857
968.6513 1.478767
969.1334 1.202568
969.6155 0.8571240
970.0977 0.4926070
970.5798 0.2195360
971.0619 0.1127700
971.5440 6.9153003E-02
972.0261 4.7637999E-02
972.5082 7.6958001E-02
972.9904 0.2817230
973.4725 0.8330460
973.9546 1.083229
974.4367 0.9109120
974.9188 0.7236180
975.4009 0.9069900
975.8831 1.179909
976.3652 1.132950
976.8473 0.8966830
977.3294 0.7288820
977.8115 0.6628340
978.2936 0.6494900
978.7758 0.6657490
979.2579 0.7715680
979.7400 1.129822
980.2221 1.607254
980.7042 1.750748
981.1863 1.580261
981.6685 1.162819
982.1506 0.5141910
982.6327 4.0871002E-02
983.1148 2.4467001E-02
983.5969 0.3104320
984.0790 0.6771090
984.5612 1.127258
985.0433 1.172432
985.5254 0.7140810
986.0075 0.4485700
986.4896 0.5833360
986.9717 0.8790890
987.4539 1.194389
987.9360 1.474930
988.4181 1.539780
988.9002 1.317871
989.3823 1.136292
989.8644 1.032898
990.3466 0.9506380
990.8287 0.9339750
991.3108 0.8565220
991.7929 0.4876330
992.2750 7.6270998E-02
992.7571 0.2503280
993.2393 0.1748810
993.7214 0.6115720
994.2035 1.230698
994.6856 1.649361
995.1677 1.605438
995.6498 1.383789
996.1320 1.243881
996.6141 1.166565
997.0962 1.081451
997.5783 1.011414
998.0604 0.8699040
998.5425 0.4697880
999.0247 0.1643680
999.5068 0.2274780
999.9889 0.5007250
1000.471 0.7717060
1000.953 1.002220
1001.435 1.219727
1001.917 1.560181
1002.399 1.695862
1002.882 1.204933
1003.364 0.6449200
1003.846 0.5190890
1004.328 0.7400440
1004.810 1.149475
1005.292 1.656227
1005.774 1.918846
1006.256 1.581322
1006.739 1.102058
1007.221 0.8644640
1007.703 0.7854840
1008.185 0.8214490
1008.667 0.9007420
1009.149 0.8422090
1009.631 0.5963670
1010.113 0.3672710
1010.595 0.3432770
1011.078 0.4309160
1011.560 0.5300450
1012.042 0.6182790
1012.524 0.6471480
1013.006 0.6116490
1013.488 0.5241850
1013.970 0.3896710
1014.452 0.1958920
1014.935 0.1672440
1015.417 0.5246580
1015.899 0.3056260
1016.381 0.3395770
1016.863 0.6779400
1017.345 0.6211010
1017.827 0.5275420
1018.309 0.5800250
1018.791 0.6544720
1019.274 0.5647740
1019.756 0.3587950
1020.238 0.2998960
1020.720 0.3793790
1021.202 0.2996600
1021.684 4.9589998E-03
1022.166 0.1753230
1022.648 1.3557000E-02
1023.130 0.3626860
1023.613 0.5671460
1024.095 0.6301650
1024.577 0.5716780
1025.059 0.3621370
1025.541 0.3102800
1026.023 0.5226590
1026.505 0.6625370
1026.987 0.4985500
1027.469 0.1771240
1027.952 4.4594001E-02
1028.434 0.1690370
1028.916 0.1501460
1029.398 7.1433999E-02
1029.880 0.2071300
1030.362 0.1259310
1030.844 0.1604690
1031.326 0.6440510
1031.809 1.248352
1032.291 1.263199
1032.773 0.5910570
1033.255 0.1637190
1033.737 4.5341000E-02
1034.219 2.9495001E-02
1034.701 2.3659000E-02
1035.183 0.2093890
1035.666 0.9324340
1036.148 1.793358
1036.630 1.886154
1037.112 1.026306
1037.594 0.4335170
1038.076 0.2238240
1038.558 9.6878000E-02
1039.040 1.2650000E-02
1039.522 3.8093999E-02
1040.005 8.1284001E-02
1040.487 0.3093030
1040.969 0.6272430
1041.451 1.121399
1041.933 1.253532
1042.415 0.6468050
1042.897 0.1954270
1043.379 0.1224060
1043.861 0.1914440
1044.344 0.3703310
1044.826 0.5449220
1045.308 0.4412160
1045.790 3.0632000E-02
1046.272 0.2450710
1046.754 0.1065900
1047.236 0.3887790
1047.718 0.3096310
1048.201 0.2458800
1048.683 0.5730290
1049.165 1.060181
1049.647 1.240677
1050.129 1.034096
1050.611 0.8394700
1051.093 0.8225330
1051.575 0.7281190
1052.057 0.3730850
1052.540 2.2751000E-02
1053.022 0.2293930
1053.504 0.2870250
1053.986 8.6281002E-02
1054.468 0.9233090
1054.950 1.405937
1055.432 1.033493
1055.914 0.6705320
1056.396 0.6043170
1056.879 0.6623990
1057.361 0.8343730
1057.843 1.004242
1058.325 0.8827210
1058.807 0.4215470
1059.289 0.1781690
1059.771 0.5543520
1060.253 0.9862750
1060.736 1.334541
1061.218 1.586700
1061.700 1.727715
1062.182 1.772606
1062.664 1.749352
1063.146 1.661331
1063.628 1.475174
1064.110 1.026512
1064.593 0.6907810
1065.075 0.7273100
1065.557 0.8372730
1066.039 0.7681200
1066.521 0.6111760
1067.003 0.5256650
1067.485 0.5424580
1067.967 0.6513980
1068.449 0.9578250
1068.932 1.165459
1069.414 1.072716
1069.896 0.9015960
1070.378 0.7333450
1070.860 0.6420750
1071.342 0.7621610
1071.824 1.065231
1072.306 1.309044
1072.788 1.410934
1073.271 1.380501
1073.753 1.249611
1074.235 1.045593
1074.717 0.5905910
1075.199 0.1624680
1075.681 0.1622850
1076.163 0.5604020
1076.645 0.9956590
1077.127 1.380135
1077.610 1.678749
1078.092 1.947792
1078.574 2.047958
1079.056 1.691368
1079.538 1.247879
1080.020 1.199867
1080.502 1.498741
1080.984 1.727837
1081.467 1.770111
1081.949 1.690826
1082.431 1.297569
1082.913 1.048920
1083.395 1.498383
1083.877 2.027496
1084.359 1.827721
1084.841 1.141945
1085.323 0.7743000
1085.806 0.9474490
1086.288 1.270088
1086.770 1.883957
1087.252 2.255508
1087.734 1.809181
1088.216 1.229614
1088.698 1.228325
1089.180 1.588715
1089.662 1.775673
1090.145 1.679382
1090.627 1.415611
1091.109 0.7727740
1091.591 0.3083950
1092.073 0.3243790
1092.555 0.5513760
1093.037 0.9776610
1093.519 1.372101
1094.002 1.298866
1094.484 0.7437970
1094.966 0.3758160
1095.448 0.4581450
1095.930 0.6477280
1096.412 0.9693980
1096.894 1.281601
1097.376 1.540779
1097.859 1.716980
1098.341 1.799706
1098.823 1.768974
1099.305 1.508629
1099.787 0.7450260
1100.269 0.2695010
1100.751 0.4795460
1101.233 0.7934650
1101.715 0.9888990
1102.198 1.097519
1102.680 1.152870
1103.162 1.162918
1103.644 1.118759
1104.126 0.9559940
1104.608 0.9416430
1105.090 1.318092
1105.572 1.548721
1106.054 1.396446
1106.537 1.075790
1107.019 0.6431270
1107.501 0.2040560
1107.983 7.6979999E-03
1108.465 4.8004001E-02
1108.947 0.1907810
1109.429 0.6554410
1109.911 0.8486630
1110.394 0.3484190
1110.876 0.1565930
1111.358 0.2511830
1111.840 3.6453001E-02
1112.322 0.3444820
1112.804 0.9083020
1113.286 1.171501
1113.768 1.023102
1114.250 0.7509000
1114.733 0.2039340
1115.215 0.2392500
1115.697 0.5502470
1116.179 0.5457990
1116.661 0.2014240
1117.143 1.516541
1117.625 2.070206
1118.107 1.409782
1118.589 1.079453
1119.072 1.348595
1119.554 1.413002
1120.036 0.8780590
1120.518 0.2935330
1121.000 0.1537170
1121.482 0.3055270
1121.964 0.2878040
1122.446 5.1018000E-02
1122.929 6.2812999E-02
1123.411 5.8968000E-02
1123.893 0.1219180
1124.375 0.5935900
1124.857 0.9133990
1125.339 0.7370380
1125.821 0.3825910
1126.303 0.4206240
1126.786 0.8209990
1127.268 1.006073
1127.750 0.9461900
1128.232 0.9403690
1128.714 1.039864
1129.196 1.090073
1129.678 1.016678
1130.160 0.8926320
1130.642 0.8016510
1131.125 0.7262270
1131.607 0.5610580
1132.089 0.3222430
1132.571 0.3395540
1133.053 0.6234590
1133.535 0.8233340
1134.017 0.8308790
1134.499 0.7875980
1134.981 0.7984770
1135.464 0.8484650
1135.946 0.9596330
1136.428 1.080811
1136.910 0.9424510
1137.392 0.6176830
1137.874 0.4641650
1138.356 0.5420610
1138.838 0.7897340
1139.321 1.177612
1139.803 1.462029
1140.285 1.268486
1140.767 0.8890150
1141.249 0.8687130
1141.731 1.076393
1142.213 1.240601
1142.695 1.350258
1143.177 1.527618
1143.660 1.789925
1144.142 1.942673
1144.624 1.823792
1145.106 1.600189
1145.588 1.376404
1146.070 1.206268
1146.552 1.261902
1147.034 1.375534
1147.516 1.142578
1147.999 0.6222920
1148.481 0.3507230
1148.963 0.5823060
1149.445 0.8982010
1149.927 1.098328
1150.409 1.219009
1150.891 1.398331
1151.373 1.419228
1151.856 0.7824860
1152.338 0.1337810
1152.820 0.3705220
1153.302 0.2696690
1153.784 0.7509770
1154.266 0.5271760
1154.748 0.3733520
1155.230 0.5834270
1155.713 0.8986660
1156.195 1.266304
1156.677 1.574310
1157.159 1.700157
1157.641 1.644440
1158.123 1.454407
1158.605 0.9777600
1159.087 0.7105560
1159.569 0.8401950
1160.052 0.9664380
1160.534 0.9540940
1161.016 0.9386440
1161.498 1.054794
1161.980 1.220314
1162.462 1.252869
1162.944 1.142960
1163.426 0.9857030
1163.908 0.7052150
1164.391 0.6252060
1164.873 0.8772890
1165.355 1.067230
1165.837 0.9998250
1166.319 0.7981190
1166.801 0.5574570
1167.283 0.3360520
1167.765 0.3979490
1168.247 0.7515340
1168.730 1.158104
1169.212 1.626541
1169.694 1.701920
1170.176 1.239212
1170.658 0.7644350
1171.140 0.6374130
1171.622 0.7677310
1172.104 1.141785
1172.587 1.603058
1173.069 1.485733
1173.551 0.9801640
1174.033 0.9402770
1174.515 1.374153
1174.997 1.449539
1175.479 0.8995900
1175.961 0.4169010
1176.443 0.6276780
1176.926 1.062752
1177.408 1.211739
1177.890 1.159515
1178.372 0.8886800
1178.854 0.5740050
1179.336 0.5815580
1179.818 0.8883510
1180.300 1.152313
1180.782 1.238884
1181.265 1.206055
1181.747 1.048042
1182.229 0.8342510
1182.711 0.4735410
1183.193 0.2042310
1183.675 0.3410950
1184.157 0.7012630
1184.639 0.9480290
1185.122 1.027626
1185.604 0.9877090
1186.086 0.7397990
1186.568 0.5356830
1187.050 0.4284740
1187.532 0.3583760
1188.014 0.3210980
1188.496 0.2921830
1188.979 0.2619020
1189.461 0.2244870
1189.943 0.1315460
1190.425 7.4965999E-02
1190.907 8.2230002E-02
1191.389 0.2024770
1191.871 0.4209820
1192.353 0.4810030
1192.835 0.5767820
1193.318 0.8235090
1193.800 1.107185
1194.282 1.300407
1194.764 1.405853
1195.246 1.359924
1195.728 1.162552
1196.210 1.149651
1196.692 1.332054
1197.174 1.346870
1197.657 1.117302
1198.139 1.002548
1198.621 1.234406
1199.103 1.578568
1199.585 1.767242
1200.067 1.843155
1200.549 1.932434
1201.031 1.957138
1201.514 1.625183
1201.996 1.079231
1202.478 0.7991710
1202.960 0.8987500
1203.442 1.147530
1203.924 1.480515
1204.406 1.712891
1204.888 1.610229
1205.370 1.450539
1205.853 1.502693
1206.335 1.604286
1206.817 1.541061
1207.299 1.349121
1207.781 1.156586
1208.263 0.9825900
1208.745 0.9215320
1209.227 1.066666
1209.709 1.220909
1210.192 1.435608
1210.674 1.514252
1211.156 1.249908
1211.638 0.9476010
1212.120 0.9733660
1212.602 1.226173
1213.084 1.326355
1213.566 1.253166
1214.049 1.114166
1214.531 0.8761440
1215.013 0.7089540
1215.495 0.6544570
1215.977 0.6315770
1216.459 0.6041790
1216.941 0.5418090
1217.423 0.3795320
1217.906 0.1979450
1218.388 0.3161540
1218.870 0.6474150
1219.352 0.6947860
1219.834 0.5049970
1220.316 0.4987870
1220.798 0.7376940
1221.280 0.9251860
1221.762 0.9001460
1222.245 0.8135760
1222.727 0.8042300
1223.209 0.8340380
1223.691 0.8701100
1224.173 0.8870770
1224.655 0.7987980
1225.137 0.6802370
1225.619 0.7541810
1226.101 0.9910050
1226.584 0.9732510
1227.066 0.3792570
1227.548 7.6508000E-02
1228.030 0.7599030
1228.512 1.274986
1228.994 0.8350830
1229.476 0.3396220
1229.958 0.6885220
1230.441 1.371162
1230.923 1.409798
1231.405 0.8278350
1231.887 0.4298860
1232.369 0.2006610
1232.851 0.2368550
1233.333 0.6466060
1233.815 0.9368360
1234.297 0.9359590
1234.780 0.9096220
1235.262 1.075562
1235.744 1.219627
1236.226 0.8926160
1236.708 0.2705460
1237.190 0.1532670
1237.672 0.4110640
1238.154 0.5011600
1238.636 0.3977280
1239.119 0.3382030
1239.601 0.3813630
1240.083 0.3800960
1240.565 0.2295460
1241.047 7.0023000E-02
1241.529 3.1753998E-02
1242.011 5.9280000E-03
1242.493 0.3007350
1242.975 0.7097240
1243.458 1.086090
1243.940 1.354935
1244.422 1.403809
1244.904 1.225151
1245.386 0.9518660
1245.868 0.5211720
1246.350 0.1800770
1246.832 7.1540996E-02
1247.315 0.1683500
1247.797 4.4418000E-02
1248.279 0.2531810
1248.761 0.2086030
1249.243 4.6691999E-02
1249.725 1.6739000E-02
1250.207 0.1088330
1250.689 0.1737060
1251.172 0.2147140
1251.654 0.1307980
1252.136 9.5398001E-02
1252.618 0.2195130
1253.100 0.1678920
1253.582 0.1247560
1254.064 0.7360530
1254.546 1.244919
1255.028 0.8762440
1255.510 0.1402660
1255.993 4.1694999E-02
1256.475 0.1463390
1256.957 0.5114140
1257.439 0.8848720
1257.921 0.8393100
1258.403 0.4154130
1258.885 0.4044490
1259.367 1.330765
1259.850 1.975822
1260.332 1.528175
1260.814 0.9872210
1261.296 0.7211760
1261.778 0.6640400
1262.260 0.8598400
1262.742 1.165207
1263.224 1.367279
1263.707 1.500793
1264.189 1.668411
1264.671 1.999069
1265.153 1.858421
1265.635 1.069771
1266.117 0.4297490
1266.599 0.1624600
1267.081 0.2618710
1267.563 0.8103180
1268.046 1.372154
1268.528 1.326912
1269.010 0.9999390
1269.492 0.8556750
1269.974 0.7782590
1270.456 0.5804600
1270.938 0.3951720
1271.420 0.4371950
1271.902 0.6679920
1272.385 0.7259600
1272.867 0.4681930
1273.349 0.3764500
1273.831 0.9895630
1274.313 1.491837
1274.795 1.455719
1275.277 1.194916
1275.759 0.7064130
1276.242 0.2910770
1276.724 0.2118680
1277.206 0.4119800
1277.688 0.7252120
1278.170 1.201965
1278.652 1.312340
1279.134 0.9485020
1279.616 0.5600890
1280.099 0.1451030
1280.581 3.8787998E-02
1281.063 0.1697920
1281.545 0.4598770
1282.027 0.6077500
1282.509 0.3713680
1282.991 0.2707980
1283.473 0.1362690
1283.955 0.0000000E+00
