#Shining_header
#Data type:raman_database
#CAS:Not entered
#Material scientific name:Barrerite
#Manufacturer:Not entered
#Laser model:Not entered
#Spectrometer model:Not entered
#Testing unit:Not entered
#Test time:Not entered
#Other experimental details:Not entered
#Shining_data
196.2582 0.0000000E+00
196.7403 8.8019997E-02
197.2225 0.7352750
197.7046 1.379784
198.1867 1.431534
198.6688 0.6937560
199.1509 3.6392000E-02
199.6330 3.0951999E-02
200.1152 0.3676760
200.5973 0.8846590
201.0794 1.439316
201.5615 1.876625
202.0436 1.955772
202.5257 1.612938
203.0079 1.185791
203.4900 0.7956160
203.9721 0.7051090
204.4542 1.053680
204.9363 1.135147
205.4184 1.196175
205.9006 1.304031
206.3827 1.601662
206.8648 1.938660
207.3469 2.010399
207.8290 2.038452
208.3111 2.070190
208.7933 2.156555
209.2754 2.228523
209.7575 2.062225
210.2396 1.509224
210.7217 0.9395290
211.2038 0.3314290
211.6860 0.1935960
212.1681 0.4767150
212.6502 0.4137880
213.1323 6.3583001E-02
213.6144 0.3246310
214.0965 1.001457
214.5787 1.378624
215.0608 1.173935
215.5429 0.6579210
216.0250 0.1612780
216.5071 0.1381840
216.9892 0.2370380
217.4713 0.1172180
217.9535 0.6042020
218.4356 1.148491
218.9177 1.275772
219.3998 1.170761
219.8819 1.119255
220.3640 1.291031
220.8462 1.647285
221.3283 1.931709
221.8104 2.129723
222.2925 2.277245
222.7746 2.321526
223.2567 2.323959
223.7389 2.381523
224.2210 2.546219
224.7031 2.814621
225.1852 3.176270
225.6673 3.965759
226.1494 4.469048
226.6316 4.293465
227.1137 3.673203
227.5958 3.101746
228.0779 2.825012
228.5600 2.807533
229.0421 2.910004
229.5243 3.200157
230.0064 3.499420
230.4885 3.740761
230.9706 3.937584
231.4527 4.119553
231.9348 4.275665
232.4170 4.454605
232.8991 4.794968
233.3812 5.448425
233.8633 5.974632
234.3454 6.041870
234.8275 5.752518
235.3097 5.535393
235.7918 5.568817
236.2739 5.770111
236.7560 5.974831
237.2381 6.187538
237.7202 6.391151
238.2024 6.557640
238.6845 6.696678
239.1666 6.864380
239.6487 7.052681
240.1308 7.309067
240.6129 7.742508
241.0951 8.402908
241.5772 8.935173
242.0593 8.951691
242.5414 8.494736
243.0235 8.219063
243.5056 8.299538
243.9878 8.632919
244.4699 9.209785
244.9520 10.02500
245.4341 10.75642
245.9162 11.10689
246.3983 11.07796
246.8805 10.98184
247.3626 10.59023
247.8447 10.41384
248.3268 10.90298
248.8089 11.99931
249.2910 13.14625
249.7732 13.83050
250.2553 14.03573
250.7374 14.26691
251.2195 14.75967
251.7016 15.09019
252.1837 14.91893
252.6659 14.35265
253.1480 13.82364
253.6301 13.75771
254.1122 14.19679
254.5943 14.55209
255.0764 14.50665
255.5586 14.67858
256.0407 15.60312
256.5228 16.99795
257.0049 18.06297
257.4870 17.97683
257.9691 16.70599
258.4513 16.17082
258.9334 17.27365
259.4155 18.32655
259.8976 18.87383
260.3797 19.00477
260.8618 18.97948
261.3440 18.95617
261.8261 18.93973
262.3082 19.10076
262.7903 19.68913
263.2724 20.22209
263.7545 20.48248
264.2367 20.62198
264.7188 20.94727
265.2009 21.69055
265.6830 22.76791
266.1651 23.46628
266.6472 23.24222
267.1294 23.20602
267.6115 23.75050
268.0936 24.55630
268.5757 25.06482
269.0578 24.93742
269.5399 24.39539
270.0221 24.47079
270.5042 26.16274
270.9863 27.43037
271.4684 27.70890
271.9505 27.53292
272.4326 27.59574
272.9148 28.22182
273.3969 29.21719
273.8790 30.03755
274.3611 30.66242
274.8432 31.09618
275.3253 31.20859
275.8075 31.19267
276.2896 31.21194
276.7717 31.33504
277.2538 31.58030
277.7359 31.99606
278.2180 32.95274
278.7002 33.50296
279.1823 33.48612
279.6644 33.13956
280.1465 32.53351
280.6286 31.72395
281.1107 31.02688
281.5929 30.93053
282.0750 31.76775
282.5571 32.26765
283.0392 32.32735
283.5213 32.10766
284.0034 31.62204
284.4856 30.93356
284.9677 30.37954
285.4498 30.41311
285.9319 31.20853
286.4140 31.26692
286.8961 29.86688
287.3783 28.28918
287.8604 27.45997
288.3425 27.40102
288.8246 27.57333
289.3067 27.54558
289.7888 27.30335
290.2710 27.14207
290.7531 27.28207
291.2352 27.25962
291.7173 26.65245
292.1994 25.57953
292.6815 24.59920
293.1637 24.10593
293.6458 24.04483
294.1279 23.89439
294.6100 23.72077
295.0921 23.37585
295.5742 22.64616
296.0564 21.66119
296.5385 20.79916
297.0206 20.27041
297.5027 19.96564
297.9848 19.52470
298.4669 18.82739
298.9491 18.23982
299.4312 17.98493
299.9133 17.90536
300.3954 17.65729
300.8775 17.08086
301.3596 16.40318
301.8418 16.16068
302.3239 16.56921
302.8060 16.54200
303.2881 15.38591
303.7702 13.78849
304.2523 12.77132
304.7345 12.60459
305.2166 12.76567
305.6987 12.58006
306.1808 12.00493
306.6629 11.65771
307.1451 11.86661
307.6272 12.21074
308.1093 12.20902
308.5914 11.80212
309.0735 11.33868
309.5556 11.17672
310.0378 11.28888
310.5199 11.12756
311.0020 10.36822
311.4841 9.552002
311.9662 9.136833
312.4483 9.099762
312.9305 9.067696
313.4126 8.783913
313.8947 8.310814
314.3768 7.963333
314.8589 7.871956
315.3410 7.766991
315.8232 7.439056
316.3053 6.962227
316.7874 6.626190
317.2695 6.618515
317.7516 6.764030
318.2337 6.602180
318.7159 5.960999
319.1980 5.450958
319.6801 5.404526
320.1622 5.633583
320.6443 5.780800
321.1264 5.742783
321.6086 5.566841
322.0907 5.276192
322.5728 4.845749
323.0549 4.502502
323.5370 4.238701
324.0191 4.111763
324.5013 4.334419
324.9834 4.969803
325.4655 5.478844
325.9476 5.182266
326.4297 4.074310
326.9118 3.350967
327.3940 3.378998
327.8761 3.640182
328.3582 3.767479
328.8403 3.733238
329.3224 3.562607
329.8045 3.245499
330.2867 2.796333
330.7688 2.354881
331.2509 1.788963
331.7330 1.356659
332.2151 1.234856
332.6972 1.362686
333.1794 1.580925
333.6615 1.867065
334.1436 2.121590
334.6257 2.047386
335.1078 1.537605
335.5899 0.9944530
336.0721 0.4965440
336.5542 4.7874000E-02
337.0363 0.3084180
337.5184 0.5471340
338.0005 0.7931060
338.4826 1.316391
338.9648 2.274963
339.4469 2.790031
339.9290 2.403389
340.4111 1.729996
340.8932 1.279701
341.3753 1.143784
341.8574 1.354576
342.3395 2.065315
342.8217 3.332489
343.3038 4.008980
343.7859 3.712044
344.2680 3.188858
344.7501 2.760216
345.2322 2.468727
345.7144 2.369049
346.1965 2.524345
346.6786 2.885712
347.1607 3.165604
347.6428 3.491714
348.1249 3.614563
348.6071 3.383255
349.0892 2.917969
349.5713 2.350746
350.0534 1.710609
350.5355 1.156456
351.0176 1.029823
351.4998 1.672493
351.9819 2.103088
352.4640 2.248222
352.9461 2.173309
353.4282 1.892166
353.9103 1.423119
354.3925 0.8583910
354.8746 0.2768400
355.3567 0.3574300
355.8388 0.7782140
356.3209 0.7798840
356.8030 0.7826840
357.2852 1.050980
357.7673 1.529564
358.2494 1.967651
358.7315 2.157944
359.2136 2.154282
359.6957 2.498955
360.1779 3.637848
360.6600 4.584908
361.1421 5.019997
361.6242 5.182274
362.1063 5.368973
362.5884 5.706680
363.0706 6.209801
363.5527 6.905396
364.0348 7.865608
364.5169 8.943710
364.9990 10.27214
365.4811 11.61480
365.9633 12.82209
366.4454 13.85703
366.9275 14.74773
367.4096 15.51304
367.8917 16.11533
368.3738 16.78364
368.8560 17.32478
369.3381 18.11178
369.8202 19.49844
370.3023 21.25739
370.7844 22.84573
371.2665 23.87038
371.7487 24.47726
372.2308 25.51789
372.7129 27.36007
373.1950 29.17323
373.6771 30.72136
374.1592 32.21200
374.6414 33.90096
375.1235 35.87871
375.6056 37.93803
376.0877 39.68521
376.5698 40.98485
377.0519 42.37897
377.5341 43.86499
378.0162 45.48521
378.4983 47.26767
378.9804 49.21255
379.4625 51.31570
379.9446 53.61110
380.4268 56.08868
380.9089 58.53815
381.3910 60.88192
381.8731 63.29539
382.3552 65.76370
382.8373 68.33906
383.3195 71.12116
383.8016 74.17171
384.2837 77.41198
384.7658 80.74958
385.2479 84.21591
385.7300 87.62628
386.2122 90.74686
386.6943 93.86177
387.1764 97.15128
387.6585 100.6560
388.1406 104.3666
388.6227 108.3847
389.1049 112.6807
389.5870 116.6419
390.0691 119.8129
390.5512 123.1715
391.0333 127.4904
391.5154 132.5981
391.9976 137.9009
392.4797 143.2256
392.9618 148.5236
393.4439 153.6887
393.9260 158.7193
394.4081 163.7143
394.8903 168.7263
395.3724 173.7547
395.8545 178.8300
396.3366 184.0433
396.8187 189.1240
397.3008 193.5880
397.7830 197.7428
398.2651 202.9922
398.7472 210.0444
399.2293 217.7851
399.7114 224.4539
400.1935 229.9887
400.6757 235.5880
401.1578 242.1313
401.6399 248.7758
402.1220 254.2443
402.6041 258.3853
403.0862 262.1092
403.5684 266.1768
404.0505 270.4673
404.5326 274.0801
405.0147 276.6383
405.4968 278.9148
405.9789 281.4339
406.4611 284.0049
406.9432 286.2284
407.4253 288.0275
407.9074 289.0977
408.3895 288.6407
408.8716 285.7330
409.3538 282.9299
409.8359 280.8276
410.3180 278.6693
410.8001 275.8362
411.2822 272.2333
411.7643 268.0400
412.2465 263.4767
412.7286 258.5535
413.2107 252.7612
413.6928 245.4315
414.1749 238.0267
414.6570 231.1082
415.1392 224.4313
415.6213 217.5952
416.1034 210.3883
416.5855 202.8786
417.0676 195.2117
417.5497 187.1248
418.0319 179.3564
418.5140 171.8320
418.9961 164.6812
419.4782 158.0891
419.9603 152.0424
420.4424 146.2065
420.9246 140.1507
421.4067 133.8199
421.8888 128.3304
422.3709 124.5405
422.8530 120.5912
423.3351 115.7558
423.8173 110.3452
424.2994 104.7749
424.7815 99.14788
425.2636 93.71958
425.7457 89.07497
426.2278 85.31020
426.7100 81.82632
427.1921 78.62331
427.6742 75.54680
428.1563 72.48120
428.6384 69.40899
429.1205 66.44798
429.6027 63.66364
430.0848 61.05895
430.5669 58.59953
431.0490 56.27945
431.5311 54.11394
432.0132 52.24336
432.4954 50.52406
432.9775 48.67771
433.4596 46.44625
433.9417 44.27247
434.4238 42.65936
434.9059 41.51238
435.3881 40.24484
435.8702 38.51523
436.3523 36.73799
436.8344 35.73245
437.3165 35.60437
437.7986 35.38065
438.2808 34.76586
438.7629 33.95020
439.2450 33.03015
439.7271 32.05235
440.2092 31.33403
440.6913 31.18629
441.1735 31.58147
441.6556 31.83734
442.1377 32.11829
442.6198 32.10243
443.1019 31.21776
443.5840 30.07671
444.0662 29.73804
444.5483 30.60136
445.0304 32.09814
445.5125 33.28178
445.9946 34.20518
446.4767 34.61862
446.9589 33.83247
447.4410 33.20647
447.9231 33.67984
448.4052 35.05902
448.8873 36.51469
449.3694 37.42091
449.8516 37.90414
450.3337 38.72893
450.8158 40.20947
451.2979 41.54802
451.7800 42.63658
452.2621 43.51076
452.7443 44.08891
453.2264 44.37981
453.7085 44.72314
454.1906 45.56701
454.6727 46.92907
455.1548 48.22700
455.6370 49.51759
456.1191 50.59829
456.6012 51.39630
457.0833 51.92771
457.5654 52.22439
458.0475 52.29742
458.5297 52.14346
459.0118 51.65617
459.4939 50.82419
459.9760 50.16551
460.4581 50.18707
460.9402 50.16989
461.4224 49.04491
461.9045 46.69534
462.3866 44.43510
462.8687 43.04018
463.3508 41.94700
463.8329 40.25520
464.3151 37.84572
464.7972 35.23265
465.2793 32.73773
465.7614 30.39943
466.2435 28.44115
466.7256 27.10548
467.2078 25.85987
467.6899 24.49897
468.1720 23.06982
468.6541 21.65215
469.1362 20.29111
469.6183 19.03945
470.1005 17.93939
470.5826 16.95372
471.0647 16.27462
471.5468 15.95628
472.0289 15.82750
472.5110 15.84748
472.9932 15.98526
473.4753 16.18542
473.9574 16.40760
474.4395 16.71320
474.9216 17.34661
475.4037 18.68829
475.8859 19.57777
476.3680 19.14347
476.8501 18.75423
477.3322 19.51477
477.8143 21.43638
478.2964 23.64787
478.7786 25.40598
479.2607 26.80040
479.7428 28.34397
480.2249 30.04536
480.7070 31.87862
481.1891 33.96578
481.6713 36.14211
482.1534 38.11514
482.6355 39.71287
483.1176 41.50669
483.5997 44.20838
484.0818 47.56033
484.5640 50.46136
485.0461 52.47502
485.5282 54.49820
486.0103 57.63000
486.4924 61.73078
486.9745 65.56683
487.4567 68.92068
487.9388 72.01067
488.4209 74.77528
488.9030 77.37019
489.3851 80.25759
489.8672 83.64681
490.3494 87.41741
490.8315 91.35989
491.3136 95.54776
491.7957 99.77354
492.2778 104.2530
492.7599 108.6069
493.2421 112.6490
493.7242 116.3409
494.2063 119.6979
494.6884 122.8158
495.1705 125.5427
495.6526 127.0746
496.1348 127.0330
496.6169 126.3128
497.0990 125.1430
497.5811 123.3866
498.0632 120.9549
498.5453 117.8101
499.0275 113.9370
499.5096 109.1744
499.9917 103.5722
500.4738 97.74670
500.9559 91.61910
501.4380 85.49584
501.9202 79.42950
502.4023 73.48969
502.8844 67.76247
503.3665 62.27988
503.8486 57.05423
504.3307 52.16481
504.8129 47.56974
505.2950 43.13480
505.7771 38.82219
506.2592 34.74773
506.7413 31.00816
507.2234 27.62257
507.7055 24.52568
508.1877 21.60545
508.6698 19.09695
509.1519 17.28579
509.6340 15.98344
510.1161 14.81776
510.5982 13.63977
511.0804 12.39546
511.5625 10.94199
512.0446 9.063862
512.5267 7.548351
513.0089 6.635983
513.4910 5.818378
513.9731 4.765301
514.4552 3.590839
514.9373 2.594528
515.4194 1.964043
515.9016 1.602318
516.3837 1.265572
516.8658 0.9369510
517.3479 0.6834110
517.8300 0.6944390
518.3121 0.6418000
518.7943 0.2373890
519.2764 0.4617200
519.7585 1.089161
520.2406 1.419102
520.7227 1.515770
521.2048 1.454533
521.6870 1.199516
522.1691 1.064602
522.6512 1.235424
523.1333 1.581337
523.6154 1.914406
524.0975 2.268341
524.5797 2.447212
525.0618 2.207115
525.5439 1.841209
526.0260 1.740265
526.5081 1.930893
526.9902 2.182053
527.4724 2.345924
527.9545 2.425217
528.4366 2.419701
528.9187 2.277260
529.4008 2.126270
529.8829 1.944576
530.3651 1.783958
530.8472 1.691315
531.3293 1.674988
531.8114 1.725357
532.2935 1.863071
532.7756 2.075817
533.2578 2.081894
533.7399 1.682087
534.2220 1.377758
534.7041 1.355309
535.1862 1.452312
535.6683 1.523098
536.1505 1.530773
536.6326 1.477486
537.1147 1.325428
537.5968 1.102768
538.0789 0.9504010
538.5610 0.9020120
539.0432 0.8492090
539.5253 0.6608810
540.0074 0.4296110
540.4895 0.3887480
540.9716 0.7112200
541.4537 0.9541470
541.9359 0.8671910
542.4180 0.5497510
542.9001 0.1180190
543.3822 0.3976290
543.8643 0.8503380
544.3464 1.063900
544.8286 1.025852
545.3107 1.216274
545.7928 2.028458
546.2749 2.567890
546.7570 2.382767
547.2391 1.903999
547.7213 1.645527
548.2034 1.749485
548.6855 2.023235
549.1676 2.260849
549.6497 2.463318
550.1318 2.597820
550.6140 2.551094
551.0961 2.601555
551.5782 2.919537
552.0603 3.358196
552.5424 3.749096
553.0245 4.059307
553.5067 4.237282
553.9888 4.182648
554.4709 3.949299
554.9530 3.677376
555.4351 3.326546
555.9172 3.202232
556.3994 3.666721
556.8815 4.601456
557.3636 5.301582
557.8457 5.775673
558.3278 5.978895
558.8099 5.579342
559.2921 5.012005
559.7742 4.957626
560.2563 5.555635
560.7384 6.417961
561.2205 7.175861
561.7026 7.840040
562.1848 8.178034
562.6669 7.823183
563.1490 7.555761
563.6311 7.577656
564.1132 7.732822
564.5953 7.896681
565.0775 8.019444
565.5596 8.006716
566.0417 7.624573
566.5238 6.936794
567.0059 6.648218
567.4880 6.886955
567.9702 7.258076
568.4523 7.622200
568.9344 7.965816
569.4165 8.276016
569.8986 8.568203
570.3807 8.770714
570.8629 8.850349
571.3450 8.809666
571.8271 8.592663
572.3092 8.200516
572.7913 7.854143
573.2734 7.707705
573.7556 7.751656
574.2377 7.915243
574.7198 8.341022
575.2019 8.688894
575.6840 8.744726
576.1661 8.815689
576.6483 9.351381
577.1304 10.26690
577.6125 10.92760
578.0946 10.74266
578.5767 9.895550
579.0588 9.370787
579.5410 9.218479
580.0231 9.298347
580.5052 9.751883
580.9873 10.27590
581.4694 10.60621
581.9515 10.72992
582.4337 10.90805
582.9158 11.45427
583.3979 12.11094
583.8800 12.37155
584.3621 12.22391
584.8442 12.07726
585.3264 12.15282
585.8085 12.32151
586.2906 12.29722
586.7727 11.99186
587.2548 11.81123
587.7369 11.86398
588.2190 11.99210
588.7011 12.12281
589.1832 12.22808
589.6653 12.25228
590.1475 12.15506
590.6296 12.03067
591.1117 12.14710
591.5938 12.65684
592.0759 13.01731
592.5580 13.00964
593.0402 12.97340
593.5223 13.08213
594.0044 13.29139
594.4865 13.47260
594.9686 13.56439
595.4507 13.65260
595.9329 13.79759
596.4150 14.00263
596.8971 14.32785
597.3792 14.81742
597.8613 15.36398
598.3434 15.87943
598.8256 16.33391
599.3077 16.66466
599.7898 16.84515
600.2719 16.99270
600.7540 17.11705
601.2361 17.25837
601.7183 17.45845
602.2004 17.71228
602.6825 17.97268
603.1646 18.20078
603.6467 18.42030
604.1288 18.75972
604.6110 19.34296
605.0931 19.79098
605.5752 19.89235
606.0573 19.92354
606.5394 20.16328
607.0215 20.63892
607.5037 21.12546
607.9858 21.41525
608.4679 21.61720
608.9500 22.02771
609.4321 22.66804
609.9142 23.11610
610.3964 23.07079
610.8785 22.82902
611.3606 23.05899
611.8427 23.97550
612.3248 24.56300
612.8069 24.56071
613.2891 24.32655
613.7712 23.98067
614.2533 23.62987
614.7354 23.42206
615.2175 23.42118
615.6996 23.59697
616.1818 23.97358
616.6639 24.66664
617.1460 25.00076
617.6281 24.74374
618.1102 24.36016
618.5923 24.02105
619.0745 23.71600
619.5566 23.42641
620.0387 23.15355
620.5208 22.87058
621.0029 22.51665
621.4850 22.15050
621.9672 22.03862
622.4493 22.24638
622.9314 22.30505
623.4135 21.76446
623.8956 20.75898
624.3777 20.13953
624.8599 20.24706
625.3420 20.23658
625.8241 19.92886
626.3062 19.51352
626.7883 19.11856
627.2704 18.77203
627.7526 18.49895
628.2347 18.34109
628.7168 18.22696
629.1989 17.89172
629.6810 17.26520
630.1631 16.67280
630.6453 16.20050
631.1274 15.77259
631.6095 15.26579
632.0916 14.75152
632.5737 14.48046
633.0558 14.74489
633.5380 15.02845
634.0201 14.94125
634.5022 14.59093
634.9843 14.19713
635.4664 13.81250
635.9485 13.38529
636.4307 12.81208
636.9128 12.08433
637.3949 11.80418
637.8770 12.52432
638.3591 12.91391
638.8412 12.70175
639.3234 12.17277
639.8055 11.44180
640.2876 10.56795
640.7697 9.823587
641.2518 9.439568
641.7339 9.303543
642.2161 9.143021
642.6982 8.948050
643.1803 8.784752
643.6624 8.685293
644.1445 8.618114
644.6266 8.549706
645.1088 8.480867
645.5909 8.392456
646.0730 8.361805
646.5551 8.230486
647.0372 7.794662
647.5193 7.222946
648.0015 6.831614
648.4836 6.706743
648.9657 6.703722
649.4478 6.657269
649.9299 6.567261
650.4120 6.450344
650.8942 6.426010
651.3763 6.163139
651.8584 5.179720
652.3405 4.151295
652.8226 3.845881
653.3047 4.334028
653.7869 4.753201
654.2690 4.561047
654.7511 4.071266
655.2332 3.582325
655.7153 3.145826
656.1974 3.034157
656.6796 3.412640
657.1617 3.934610
657.6438 4.045849
658.1259 3.637196
658.6080 3.251614
659.0901 2.848633
659.5723 2.513454
660.0544 2.256920
660.5365 2.094229
661.0186 2.048626
661.5007 2.124041
661.9828 2.287891
662.4650 2.624727
662.9471 3.036310
663.4292 3.039227
663.9113 2.554911
664.3934 2.130276
664.8755 2.055771
665.3577 2.127743
665.8398 1.934097
666.3219 1.397173
666.8040 1.150234
667.2861 1.652740
667.7682 2.133551
668.2504 2.007092
668.7325 1.504745
669.2146 1.118799
669.6967 1.034582
670.1788 1.111189
670.6609 1.199427
671.1431 1.304571
671.6252 1.260626
672.1073 0.9681430
672.5894 0.7130640
673.0715 0.6318760
673.5536 0.6331670
674.0358 0.6414090
674.5179 0.6504800
675.0000 0.6337660
675.4821 0.5373120
675.9642 0.4394930
676.4464 0.5047470
676.9285 0.6567190
677.4106 0.5548400
677.8927 4.5724999E-02
678.3748 0.5338040
678.8569 0.6865040
679.3391 0.3621100
679.8212 9.7799003E-02
680.3033 1.142950
680.7854 1.771517
681.2675 1.465841
681.7496 0.7793830
682.2318 0.2802730
682.7139 7.7604003E-02
683.1960 3.3222001E-02
683.6781 0.1511150
684.1602 0.3202400
684.6423 0.3427600
685.1245 0.2223680
685.6066 1.4297000E-02
686.0887 0.2886100
686.5708 0.5737690
687.0529 0.6703570
687.5350 0.5437930
688.0172 0.4117680
688.4993 0.1867310
688.9814 5.9269000E-02
689.4635 0.2050550
689.9456 0.4207520
690.4277 0.4452920
690.9099 0.2438770
691.3920 1.7340001E-02
691.8741 3.8826000E-02
692.3562 9.1900001E-04
692.8383 0.1674690
693.3204 0.5625110
693.8026 0.6216600
694.2847 7.2780000E-03
694.7668 0.7715930
695.2489 0.9308990
695.7310 0.4505900
696.2131 0.1704270
696.6953 0.4179270
697.1774 0.5308860
697.6595 2.8170000E-03
698.1416 0.6770740
698.6237 0.8088260
699.1058 0.3419880
699.5880 0.1265300
700.0701 5.6921002E-02
700.5522 0.3904250
701.0343 0.6568320
701.5164 0.7230360
701.9985 0.7356050
702.4807 0.7242970
702.9628 0.6797900
703.4449 0.5835290
703.9270 0.4435080
704.4091 0.2943330
704.8912 7.5969999E-03
705.3734 0.1306340
705.8555 0.1795520
706.3376 0.6181030
706.8197 0.7078760
707.3018 0.4450230
707.7839 0.2550750
708.2661 0.4837990
708.7482 0.9683950
709.2303 1.176626
709.7124 1.033573
710.1945 0.9355260
710.6766 0.9097140
711.1588 0.9870970
711.6409 1.329220
712.1230 1.781576
712.6051 1.916557
713.0872 1.459940
713.5693 1.054436
714.0515 1.066462
714.5336 1.266794
715.0157 1.417877
715.4978 1.476601
715.9799 1.424089
716.4620 1.238071
716.9442 1.003862
717.4263 0.9337560
717.9084 1.068499
718.3905 1.193274
718.8726 1.303963
719.3547 1.394058
719.8369 1.444056
720.3190 1.478205
720.8011 1.556303
721.2832 1.717178
721.7653 1.777338
722.2474 1.470922
722.7296 1.139565
723.2117 1.264000
723.6938 1.729708
724.1759 2.045599
724.6580 1.988174
725.1401 1.725742
725.6223 1.480747
726.1044 1.223545
726.5865 1.251530
727.0686 1.760933
727.5507 2.243038
728.0328 2.681719
728.5150 2.913429
728.9971 2.626328
729.4792 1.809332
729.9613 1.202248
730.4434 1.220964
730.9255 1.488218
731.4077 1.764582
731.8898 2.002956
732.3719 2.081850
732.8540 1.975965
733.3361 1.860956
733.8182 1.947332
734.3004 2.200457
734.7825 2.207151
735.2646 1.810436
735.7467 1.498304
736.2288 1.377270
736.7109 1.342299
737.1931 1.387943
737.6752 1.484814
738.1573 1.514050
738.6394 1.459379
739.1215 1.303907
739.6036 0.8384060
740.0858 0.3481390
740.5679 0.4319210
741.0500 1.067696
741.5321 1.526564
742.0142 1.274151
742.4963 0.6086270
742.9785 0.4189830
743.4606 0.8890360
743.9427 1.133093
744.4248 0.9482310
744.9069 0.7113480
745.3890 0.5558700
745.8712 0.5148930
746.3533 0.7202090
746.8354 1.293699
747.3175 1.623596
747.7996 1.149437
748.2817 0.5178200
748.7639 0.4482630
749.2460 0.8111650
749.7281 1.082756
750.2102 1.049383
750.6923 0.9193740
751.1744 0.9916440
751.6566 1.268658
752.1387 1.457327
752.6208 1.512131
753.1029 1.477194
753.5850 1.256289
754.0671 1.081923
754.5493 1.262529
755.0314 1.782747
755.5135 2.158331
755.9956 2.188780
756.4777 2.075771
756.9598 1.802410
757.4420 1.513992
757.9241 1.461967
758.4062 1.655254
758.8883 1.863977
759.3704 1.901699
759.8525 1.850767
760.3347 1.961796
760.8168 2.258350
761.2989 2.508089
761.7810 2.673616
762.2631 2.786983
762.7452 2.876156
763.2274 2.924774
763.7095 2.898701
764.1916 2.746647
764.6737 2.618191
765.1558 2.511108
765.6379 2.472643
766.1201 2.562721
766.6022 2.756638
767.0843 2.978863
767.5664 3.185997
768.0485 3.410622
768.5306 3.703201
769.0128 4.037218
769.4949 4.275007
769.9770 4.409740
770.4591 4.492125
770.9412 4.522612
771.4233 4.545456
771.9055 4.641846
772.3876 4.832647
772.8697 4.885700
773.3518 4.482143
773.8339 4.347605
774.3160 4.997383
774.7982 5.785374
775.2803 6.043461
775.7624 5.793692
776.2445 5.520834
776.7266 5.505699
777.2087 5.602291
777.6909 5.608490
778.1730 5.540329
778.6551 5.419477
779.1372 5.256472
779.6193 5.185232
780.1014 5.284391
780.5836 5.518574
781.0657 5.754612
781.5478 6.092937
782.0299 6.224936
782.5120 5.755276
782.9941 5.511152
783.4763 6.059845
783.9584 6.893173
784.4405 7.306370
784.9226 7.166187
785.4047 6.875023
785.8868 6.478167
786.3690 6.192749
786.8511 6.374798
787.3332 6.877327
787.8153 7.282251
788.2974 7.467152
788.7795 7.544113
789.2617 7.640385
789.7438 7.733957
790.2259 7.618196
790.7080 7.197567
791.1901 6.931629
791.6722 7.020452
792.1544 7.139498
792.6365 7.002155
793.1186 6.721212
793.6007 6.609877
794.0828 6.844805
794.5649 6.947462
795.0471 6.583622
795.5292 6.144548
796.0113 5.993921
796.4934 6.063721
796.9755 6.100054
797.4576 6.003790
797.9398 5.930531
798.4219 6.205698
798.9040 6.704596
799.3861 6.624258
799.8682 5.896049
800.3503 5.302670
800.8325 5.163570
801.3146 5.156412
801.7967 4.864191
802.2788 4.272083
802.7609 3.999802
803.2430 4.384457
803.7252 4.597458
804.2073 4.275118
804.6894 3.918179
805.1715 4.017319
805.6536 4.427275
806.1357 4.627609
806.6179 4.354164
807.1000 3.999090
807.5821 3.927282
808.0642 4.038950
808.5463 4.177139
809.0284 4.312954
809.5106 4.389372
809.9927 4.384846
810.4748 4.262051
810.9569 3.934961
811.4390 3.378056
811.9211 2.934387
812.4033 2.619688
812.8854 2.381365
813.3675 2.229092
813.8496 2.130243
814.3317 2.106516
814.8138 2.130489
815.2960 2.039738
815.7781 1.730919
816.2602 1.383039
816.7423 0.9749950
817.2244 0.6373000
817.7065 0.5626010
818.1887 0.7032170
818.6708 0.8617730
819.1529 0.9381960
819.6350 0.9585880
820.1171 0.9729440
820.5992 0.9688840
821.0814 0.8475590
821.5635 0.5933060
822.0456 0.3499910
822.5277 0.1800160
823.0098 4.2447999E-02
823.4919 0.1513390
823.9741 0.4324210
824.4562 0.4620090
824.9383 8.1635997E-02
825.4204 0.4459040
825.9025 0.3348540
826.3846 0.1333830
826.8668 0.1922700
827.3489 0.4442750
827.8310 0.5654700
828.3131 0.3709050
828.7952 0.1709710
829.2773 0.2362800
829.7595 0.4168220
830.2416 0.5079000
830.7237 0.4989240
831.2058 0.4259830
831.6879 0.3049200
832.1700 0.2226870
832.6522 0.3672600
833.1343 0.7191470
833.6164 0.6855680
834.0985 0.1254670
834.5806 0.2451380
835.0627 9.2949003E-02
835.5449 0.1782250
836.0270 9.1147996E-02
836.5091 0.3149990
836.9912 0.4631310
837.4733 1.4011000E-02
837.9554 0.2668740
838.4376 0.2223000
838.9197 0.7088930
839.4018 0.5865100
839.8839 3.7629999E-02
840.3660 0.4808940
840.8481 0.8167610
841.3303 0.9518780
841.8124 0.7724970
842.2945 0.4415570
842.7766 0.1471420
843.2587 8.6924002E-02
843.7408 2.1584000E-02
844.2230 0.4166790
844.7051 0.8696140
845.1872 0.9422700
845.6693 0.6675470
846.1514 0.3100360
846.6335 0.2442090
847.1157 0.4583630
847.5978 3.5682999E-02
848.0799 0.4497680
848.5620 0.6022590
849.0441 0.5214180
849.5262 0.4402500
850.0084 0.3588770
850.4905 0.2930430
850.9726 0.1935650
851.4547 0.1680070
851.9368 0.2684990
852.4189 0.4857900
852.9011 0.9259720
853.3832 1.538115
853.8653 1.868591
854.3474 1.415113
854.8295 0.6894890
855.3116 0.4316580
855.7938 0.5319400
856.2759 0.6957800
856.7580 0.8597370
857.2401 0.9265380
857.7222 0.8059860
858.2043 0.6086440
858.6865 0.6338350
859.1686 0.9579700
859.6507 1.122465
860.1328 1.061548
860.6149 0.9481950
861.0970 0.8147740
861.5792 0.6955850
862.0613 0.6310180
862.5434 0.6197030
863.0255 0.6344700
863.5076 0.7232630
863.9897 0.7737520
864.4719 0.7214360
864.9540 0.6366460
865.4361 0.5313320
865.9182 0.4549940
866.4003 0.5355870
866.8824 0.8363460
867.3646 1.132744
867.8467 1.190926
868.3288 1.111370
868.8109 1.058168
869.2930 1.052475
869.7751 1.056669
870.2573 1.071070
870.7394 1.099409
871.2215 1.135611
871.7036 1.167776
872.1857 1.110727
872.6678 0.9389480
873.1500 0.7884580
873.6321 0.6474170
874.1142 0.6031890
874.5963 0.8209920
875.0784 1.152937
875.5605 1.115227
876.0427 0.4441430
876.5248 0.2153110
877.0069 0.8921810
877.4890 1.550432
877.9711 1.923447
878.4532 1.987295
878.9354 1.571730
879.4175 0.7704390
879.8996 0.1776790
880.3817 0.1699660
880.8638 0.3685490
881.3459 0.5175300
881.8281 0.6081850
882.3102 0.6331960
882.7923 0.6160830
883.2744 0.5682770
883.7565 0.5031680
884.2386 0.4381960
884.7208 0.4058000
885.2029 0.3985020
885.6850 0.3016220
886.1671 8.7188996E-02
886.6492 0.1422200
887.1313 0.6886390
887.6135 1.214729
888.0956 1.151289
888.5777 0.6347290
889.0598 0.5855350
889.5419 1.514746
890.0240 1.964811
890.5062 1.528837
890.9883 1.029495
891.4704 0.7801800
891.9525 0.7076230
892.4346 0.7178900
892.9167 0.8165870
893.3989 0.8267820
893.8810 0.6148910
894.3631 0.3638840
894.8452 2.0571001E-02
895.3273 0.1701260
895.8094 0.2484950
896.2916 1.108677
896.7737 1.608992
897.2558 1.323660
897.7379 0.7946300
898.2200 0.6705680
898.7021 0.7711350
899.1843 0.5488830
899.6664 4.6076000E-02
900.1485 9.8116003E-02
900.6306 0.3659950
901.1127 0.8850040
901.5948 0.7994520
902.0770 0.2332340
902.5591 4.8769001E-02
903.0412 0.3299980
903.5233 0.6064570
904.0054 0.8588890
904.4875 1.010954
904.9697 1.000977
905.4518 0.9041960
905.9339 0.7871510
906.4160 0.6061380
906.8981 0.5658470
907.3802 0.8399980
907.8624 0.9965440
908.3445 0.8171310
908.8266 0.5599560
909.3087 0.4751950
909.7908 0.5649890
910.2729 0.7069400
910.7551 0.9000210
911.2372 1.055357
911.7193 1.101498
912.2014 1.098471
912.6835 1.150824
913.1656 1.206121
913.6478 1.088369
914.1299 0.7644200
914.6120 0.4856590
915.0941 0.5338750
915.5762 0.7254390
916.0583 0.6387920
916.5404 0.3537430
917.0225 0.3135030
917.5046 0.5687550
917.9868 0.7934610
918.4689 0.8013020
918.9510 0.6928810
919.4331 0.6734250
919.9152 0.7542920
920.3973 0.7535200
920.8795 0.5806100
921.3616 0.6313020
921.8437 1.245941
922.3258 1.806033
922.8079 1.581782
923.2900 0.7241360
923.7722 0.3267890
924.2543 0.8260940
924.7364 1.068553
925.2185 0.8573080
925.7006 0.5438340
926.1827 4.8572000E-02
926.6649 0.3186520
927.1470 1.1154000E-02
927.6291 0.9905660
928.1112 1.758275
928.5933 1.829179
929.0754 1.677753
929.5576 1.485627
930.0397 1.297313
930.5218 1.156897
931.0039 1.067026
931.4860 1.048717
931.9681 1.112899
932.4503 1.089581
932.9324 0.6505070
933.4145 8.4928997E-02
933.8966 2.4722001E-02
934.3787 0.3468060
934.8608 0.5302900
935.3430 0.4625040
935.8251 0.4032040
936.3072 0.5603330
936.7893 0.8187080
937.2714 0.9074760
937.7535 0.8250550
938.2357 0.7030120
938.7178 0.5370710
939.1999 0.3820250
939.6820 0.2364400
940.1641 0.1688330
940.6462 0.2929220
941.1284 0.5855900
941.6105 0.7152710
942.0926 0.5802190
942.5747 0.4804070
943.0568 0.4174190
943.5389 0.4212540
944.0211 0.6150690
944.5032 0.8334870
944.9853 0.7848320
945.4674 0.4253970
945.9495 0.1579590
946.4316 2.0359000E-02
946.9138 6.6370000E-03
947.3959 0.4901230
947.8780 0.9839740
948.3601 0.9792800
948.8422 0.6129880
949.3243 0.3266020
949.8065 0.2629510
950.2886 0.2549960
950.7707 0.2065690
951.2528 0.1581570
951.7349 0.1161170
952.2170 0.1145090
952.6992 0.2534630
953.1813 0.5033810
953.6634 0.6966670
954.1455 0.6864900
954.6276 0.5792500
955.1097 0.5498420
955.5919 0.5332090
956.0740 0.2780260
956.5561 0.1666900
957.0382 0.4057510
957.5203 0.3124780
958.0024 0.1378200
958.4846 0.1080450
958.9667 0.1769420
959.4488 0.1544530
959.9309 4.4165000E-02
960.4130 0.1850390
960.8951 0.6057450
961.3773 0.8403400
961.8594 0.6584750
962.3415 0.3000170
962.8236 0.1098310
963.3057 8.9557998E-02
963.7878 4.1756999E-02
964.2700 0.1306510
964.7521 0.1004700
965.2342 0.4461580
965.7163 0.8615880
966.1984 0.5897770
966.6805 3.5069998E-02
967.1627 0.3237900
967.6448 0.2161840
968.1269 7.9818003E-02
968.6090 5.1493999E-02
969.0911 0.2196330
969.5732 0.5568630
970.0554 0.8333840
970.5375 0.8059290
971.0196 0.5622140
971.5017 0.3533800
971.9838 0.2253400
972.4659 0.1832280
972.9481 0.3674660
973.4302 0.5019000
973.9123 0.2524680
974.3944 8.8119999E-02
974.8765 4.3687999E-02
975.3586 0.3498210
975.8408 0.6112730
976.3229 0.4723280
976.8050 0.2623100
977.2871 0.2934800
977.7692 0.4111610
978.2513 0.3508050
978.7335 0.2012480
979.2156 0.2682740
979.6977 0.5971830
980.1798 0.8832530
980.6619 0.8852390
981.1440 0.7442280
981.6262 0.6968780
982.1083 0.7182620
982.5904 0.6257080
983.0725 0.4362200
983.5546 0.4218010
984.0367 0.6760920
984.5189 0.9998890
985.0010 1.258055
985.4831 1.424549
985.9652 1.327353
986.4473 0.9622940
986.9294 0.7108520
987.4116 0.6217560
987.8937 0.6034280
988.3758 0.6088750
988.8579 0.6699450
989.3400 0.8285180
989.8221 1.085875
990.3043 1.504868
990.7864 2.265673
991.2685 2.533787
991.7506 1.955196
992.2327 1.395493
992.7148 1.391848
993.1970 1.651102
993.6791 1.637640
994.1612 1.287930
994.6433 1.191256
995.1254 1.612762
995.6075 1.877420
996.0897 1.806097
996.5718 1.631010
997.0539 1.391506
997.5360 1.174450
998.0181 1.185703
998.5002 1.498821
998.9824 1.722786
999.4645 1.752548
999.9466 1.706486
1000.429 1.518534
1000.911 1.387882
1001.393 1.553240
1001.875 1.899347
1002.357 2.124590
1002.839 2.150394
1003.321 2.161154
1003.804 2.144825
1004.286 2.228310
1004.768 2.737654
1005.250 3.243172
1005.732 3.061028
1006.214 2.389858
1006.696 2.052513
1007.178 2.402756
1007.660 2.823105
1008.143 2.889700
1008.625 2.849257
1009.107 2.887293
1009.589 2.987024
1010.071 3.209412
1010.553 3.483896
1011.035 3.480858
1011.517 2.983139
1012.000 2.518259
1012.482 2.792017
1012.964 3.317282
1013.446 3.273262
1013.928 2.861494
1014.410 2.646704
1014.892 2.728567
1015.374 2.890566
1015.856 3.003889
1016.339 3.057238
1016.821 2.940899
1017.303 2.777861
1017.785 2.986382
1018.267 3.477247
1018.749 3.740351
1019.231 3.649649
1019.713 3.458843
1020.195 3.347553
1020.678 3.263926
1021.160 3.065599
1021.642 2.796726
1022.124 2.773911
1022.606 3.007757
1023.088 3.286512
1023.570 3.530581
1024.052 3.654484
1024.535 3.541893
1025.017 3.342043
1025.499 3.545477
1025.981 4.166166
1026.463 4.311119
1026.945 3.905682
1027.427 3.475973
1027.909 3.153608
1028.391 2.962814
1028.874 2.935072
1029.356 3.038372
1029.838 3.215027
1030.320 3.525063
1030.802 3.525686
1031.284 3.068783
1031.766 2.834450
1032.248 3.135427
1032.731 3.451368
1033.213 3.237974
1033.695 2.690052
1034.177 2.604862
1034.659 3.222206
1035.141 3.458248
1035.623 3.126549
1036.105 2.823444
1036.588 2.753906
1037.070 2.738413
1037.552 2.600824
1038.034 2.382710
1038.516 2.254307
1038.998 2.261076
1039.480 2.225716
1039.962 1.976704
1040.444 1.964476
1040.927 2.587864
1041.409 3.226326
1041.891 3.279455
1042.373 2.894617
1042.855 2.654539
1043.337 2.670483
1043.819 2.564651
1044.301 2.114168
1044.783 1.833433
1045.266 2.037554
1045.748 2.314802
1046.230 2.333841
1046.712 2.144415
1047.194 1.903744
1047.676 1.553610
1048.158 1.351387
1048.640 1.407011
1049.123 1.503038
1049.605 1.678696
1050.087 1.775137
1050.569 1.564102
1051.051 1.176382
1051.533 0.9990710
1052.015 1.129099
1052.497 1.265961
1052.979 1.390276
1053.462 1.469242
1053.944 1.588943
1054.426 1.572617
1054.908 1.148207
1055.390 0.4872890
1055.872 5.2640000E-03
1056.354 0.2362000
1056.836 0.2690320
1057.318 0.1710800
1057.801 0.4707070
1058.283 0.2002910
1058.765 0.1482910
1059.247 0.1121440
1059.729 0.1738570
1060.211 0.3346560
1060.693 0.2887360
1061.175 0.2359070
1061.658 0.2168520
1062.140 0.2318860
1062.622 0.3649120
1063.104 0.4565910
1063.586 0.3279340
1064.068 6.8134002E-02
1064.550 0.1236340
1065.032 0.2075750
1065.515 0.3029650
1065.997 0.5429440
1066.479 0.6875150
1066.961 0.5640620
1067.443 0.3605160
1067.925 0.1648010
1068.407 3.5128001E-02
1068.889 7.5556003E-02
1069.371 0.2949680
1069.854 0.4926620
1070.336 0.5813200
1070.818 0.6390170
1071.300 0.7561530
1071.782 0.8032510
1072.264 0.6367530
1072.746 0.3455430
1073.228 4.0741000E-02
1073.710 0.2399480
1074.193 0.4171410
1074.675 0.4352650
1075.157 0.3835700
1075.639 0.2456670
1076.121 0.1123330
1076.603 1.7897001E-02
1077.085 4.8199999E-03
1077.567 7.7483997E-02
1078.050 0.2706910
1078.532 0.5821530
1079.014 1.081589
1079.496 1.539076
1079.978 1.892965
1080.460 2.118986
1080.942 2.074322
1081.424 1.968714
1081.906 2.090464
1082.389 2.419106
1082.871 2.739908
1083.353 3.009888
1083.835 3.153450
1084.317 2.920490
1084.799 2.791468
1085.281 3.244907
1085.763 3.844124
1086.245 4.011669
1086.728 3.863075
1087.210 3.926548
1087.692 4.375082
1088.174 4.840641
1088.656 5.183672
1089.138 5.476822
1089.620 5.727957
1090.102 5.975330
1090.584 6.393835
1091.067 6.801702
1091.549 6.656044
1092.031 5.814234
1092.513 5.376621
1092.995 6.109562
1093.477 6.890984
1093.959 7.207657
1094.441 7.380136
1094.924 7.689581
1095.406 8.047392
1095.888 8.229975
1096.370 8.216625
1096.852 8.272184
1097.334 8.540455
1097.816 8.809626
1098.298 9.115389
1098.781 9.284451
1099.263 8.988855
1099.745 8.614218
1100.227 8.784895
1100.709 9.448538
1101.191 9.840708
1101.673 9.567499
1102.155 9.449297
1102.637 9.922100
1103.120 10.35233
1103.602 10.32447
1104.084 10.15766
1104.566 10.14413
1105.048 10.30523
1105.530 10.63670
1106.012 11.23621
1106.494 11.66332
1106.976 11.67546
1107.459 11.71620
1107.941 12.08266
1108.423 12.41155
1108.905 12.24318
1109.387 11.85851
1109.869 11.98015
1110.351 12.78448
1110.833 13.26973
1111.316 13.00055
1111.798 12.88086
1112.280 13.32785
1112.762 13.71856
1113.244 13.56315
1113.726 13.18573
1114.208 13.07209
1114.690 13.24425
1115.172 13.44535
1115.655 13.72847
1116.137 13.91632
1116.619 13.80467
1117.101 13.84957
1117.583 14.33004
1118.065 14.95633
1118.547 15.45446
1119.029 15.83587
1119.511 16.18922
1119.994 16.62327
1120.476 16.73215
1120.958 16.28589
1121.440 15.94825
1121.922 15.86626
1122.404 16.02528
1122.886 16.59764
1123.368 17.26489
1123.851 17.15680
1124.333 16.11612
1124.815 15.63282
1125.297 15.86592
1125.779 16.19449
1126.261 16.58683
1126.743 16.82040
1127.225 16.72565
1127.708 16.48063
1128.190 16.34386
1128.672 16.30952
1129.154 16.27938
1129.636 16.23320
1130.118 16.39587
1130.600 16.82439
1131.082 17.28570
1131.564 17.70354
1132.047 17.96775
1132.529 17.93996
1133.011 17.73351
1133.493 17.72787
1133.975 17.91061
1134.457 17.82741
1134.939 17.46785
1135.421 17.01154
1135.903 16.49867
1136.386 16.30924
1136.868 16.73598
1137.350 17.34038
1137.832 17.30666
1138.314 16.87399
1138.796 17.17617
1139.278 18.01132
1139.760 18.23915
1140.243 17.78275
1140.725 17.41877
1141.207 17.48349
1141.689 17.70664
1142.171 17.86085
1142.653 17.92842
1143.135 17.81276
1143.617 17.61131
1144.099 17.60634
1144.582 17.72378
1145.064 17.61502
1145.546 17.23908
1146.028 16.92446
1146.510 16.85015
1146.992 17.04488
1147.474 17.90527
1147.956 18.76331
1148.438 18.46592
1148.921 17.63079
1149.403 17.40825
1149.885 17.77354
1150.367 18.03518
1150.849 17.94303
1151.331 17.69087
1151.813 17.20164
1152.295 16.83833
1152.778 16.97036
1153.260 17.25694
1153.742 17.41117
1154.224 17.43772
1154.706 17.40492
1155.188 17.31796
1155.670 17.08345
1156.152 16.58937
1156.635 16.11400
1157.117 15.66982
1157.599 15.37728
1158.081 15.45138
1158.563 15.59123
1159.045 15.46871
1159.527 15.16386
1160.009 14.98953
1160.491 15.01851
1160.974 14.96451
1161.456 14.67688
1161.938 14.44235
1162.420 14.31322
1162.902 14.30138
1163.384 14.61168
1163.866 14.91452
1164.348 14.69166
1164.830 13.96433
1165.313 13.31194
1165.795 12.56646
1166.277 12.48290
1166.759 13.57335
1167.241 14.07365
1167.723 13.22161
1168.205 12.05606
1168.687 11.44156
1169.170 11.17263
1169.652 10.68323
1170.134 9.954119
1170.616 9.892040
1171.098 10.57310
1171.580 10.66076
1172.062 9.895988
1172.544 9.203831
1173.026 9.061197
1173.509 9.073582
1173.991 8.754816
1174.473 8.218267
1174.955 7.764868
1175.437 7.406145
1175.919 7.298958
1176.401 7.378279
1176.883 7.197897
1177.365 6.673531
1177.848 6.334721
1178.330 6.582968
1178.812 6.880922
1179.294 6.524672
1179.776 5.886719
1180.258 5.458729
1180.740 5.199579
1181.222 5.085335
1181.705 5.044512
1182.187 4.904293
1182.669 4.621099
1183.151 4.353653
1183.633 4.214739
1184.115 4.081480
1184.597 3.781935
1185.079 3.252634
1185.562 3.241186
1186.044 3.174637
1186.526 3.056210
1187.008 2.731698
1187.490 2.674607
1187.972 2.516212
1188.454 2.363499
1188.936 2.354658
1189.418 2.063286
1189.901 2.042044
1190.383 1.917246
1190.865 1.844644
1191.347 2.062588
1191.829 1.902575
1192.311 1.518339
1192.793 1.341178
1193.275 1.524511
1193.757 1.513920
1194.240 1.185059
1194.722 0.9351800
1195.204 0.8726500
1195.686 0.9695170
1196.168 1.264768
1196.650 1.574038
1197.132 1.498302
1197.614 1.071671
1198.097 0.7317080
1198.579 0.4815590
1199.061 0.5468790
1199.543 0.9388550
1200.025 1.227888
1200.507 1.247010
1200.989 1.132937
1201.471 0.9956360
1201.953 0.8380660
1202.436 0.6132640
1202.918 0.3994060
1203.400 0.4761770
1203.882 0.6850160
1204.364 0.5111700
1204.846 1.6650000E-03
1205.328 0.3363280
1205.810 0.2864310
1206.292 9.5132001E-02
1206.775 9.7360998E-02
1207.257 0.3041630
1207.739 0.6673590
1208.221 0.9257710
1208.703 0.6738610
1209.185 0.2221400
1209.667 9.5725998E-02
1210.149 0.2796270
1210.632 0.3414470
1211.114 0.1053070
1211.596 5.7460000E-03
1212.078 0.2401380
1212.560 0.4469910
1213.042 0.4827570
1213.524 0.4443370
1214.006 0.3608850
1214.489 0.2706840
1214.971 0.2514830
1215.453 0.2880800
1215.935 0.1683140
1216.417 0.1859200
1216.899 0.4437500
1217.381 0.5983960
1217.863 0.6573310
1218.345 0.6253090
1218.828 0.4592410
1219.310 8.8385999E-02
1219.792 0.2626650
1220.274 0.1630820
1220.756 0.2603880
1221.238 0.4446280
1221.720 0.4055760
1222.202 0.1217820
1222.684 0.3308610
1223.167 0.4504350
1223.649 0.1173180
1224.131 0.1800830
1224.613 9.9454001E-02
1225.095 7.7491000E-02
1225.577 5.1185999E-02
1226.059 6.9077000E-02
1226.541 0.2240780
1227.024 0.3348450
1227.506 0.2862010
1227.988 9.7797997E-02
1228.470 0.2252510
1228.952 0.6488320
1229.434 0.8485880
1229.916 0.6068080
1230.398 0.3143320
1230.880 7.8406997E-02
1231.363 0.3330890
1231.845 0.2650300
1232.327 5.4832999E-02
1232.809 0.2361570
1233.291 0.4999440
1233.773 0.4178680
1234.255 7.0533000E-02
1234.737 1.1889000E-02
1235.219 0.9436720
1235.702 1.374788
1236.184 0.9929480
1236.666 0.6424470
1237.148 0.6302850
1237.630 0.7642420
1238.112 0.9002280
1238.594 1.003095
1239.076 0.9738910
1239.559 0.8468480
1240.041 0.7874690
1240.523 0.8020040
1241.005 0.9856000
1241.487 1.290427
1241.969 1.389997
1242.451 1.201210
1242.933 1.069945
1243.416 1.276786
1243.898 1.509846
1244.380 1.489141
1244.862 1.304712
1245.344 0.8400050
1245.826 0.4227730
1246.308 0.6221380
1246.790 1.138136
1247.272 1.288980
1247.755 0.9149020
1248.237 0.7912000
1248.719 1.432565
1249.201 1.866603
1249.683 1.765468
1250.165 1.640708
1250.647 1.629921
1251.129 1.723342
1251.611 2.008541
1252.094 2.275431
1252.576 2.031458
1253.058 1.362102
1253.540 1.138618
1254.022 1.415155
1254.504 1.466722
1254.986 1.360048
1255.468 1.195680
1255.951 0.8427160
1256.433 0.6526690
1256.915 0.8523600
1257.397 1.121285
1257.879 1.192541
1258.361 1.220267
1258.843 1.195972
1259.325 1.155560
1259.807 1.343344
1260.290 1.773975
1260.772 1.942245
1261.254 1.655184
1261.736 1.417873
1262.218 1.233791
1262.700 1.125899
1263.182 1.119473
1263.664 1.193081
1264.146 1.459263
1264.629 1.695240
1265.111 1.619362
1265.593 1.426009
1266.075 1.492853
1266.557 1.749134
1267.039 1.757609
1267.521 1.604052
1268.003 1.329332
1268.486 0.9548540
1268.968 0.6917760
1269.450 0.5898980
1269.932 0.6196470
1270.414 0.7747170
1270.896 0.9102290
1271.378 0.8538280
1271.860 0.7034880
1272.343 0.8143790
1272.825 1.077048
1273.307 0.9610220
1273.789 0.6248810
1274.271 0.5284520
1274.753 0.6994830
1275.235 0.9761720
1275.717 1.292916
1276.199 1.409815
1276.682 1.011552
1277.164 0.6527020
1277.646 0.6597040
1278.128 0.7345020
1278.610 0.7428390
1279.092 0.6672170
1279.574 0.3694140
1280.056 1.2239000E-02
1280.538 7.1557999E-02
1281.021 0.1905360
1281.503 0.5272960
1281.985 1.028592
1282.467 1.184118
1282.949 0.8830900
1283.431 0.6202260
1283.913 0.4340200
1284.395 0.1994980
1284.878 0.1335850
1285.360 7.2084002E-02
1285.842 7.5075999E-02
1286.324 0.1195350
1286.806 6.6822998E-02
1287.288 0.0000000E+00
