#Shining_header
#Data type:raman_database
#CAS:Not entered
#Material scientific name:Avogadrite
#Manufacturer:Not entered
#Laser model:Not entered
#Spectrometer model:Not entered
#Testing unit:Not entered
#Test time:Not entered
#Other experimental details:Not entered
#Shining_data
178.3845 0.0000000E+00
178.8666 0.4045720
179.3488 0.3417210
179.8309 3.2875001E-02
180.3130 3.0440999E-02
180.7951 0.4629820
181.2772 1.001732
181.7593 2.045036
182.2415 3.069382
182.7236 3.734955
183.2057 3.439560
183.6878 2.720047
184.1699 2.140831
184.6520 2.061104
185.1342 1.594566
185.6163 0.9387740
186.0984 0.3325200
186.5805 4.8139999E-03
187.0626 1.5198000E-02
187.5447 0.3204120
188.0269 1.296455
188.5090 3.302460
188.9911 4.368530
189.4732 3.081566
189.9553 0.7141720
190.4374 0.3613280
190.9196 0.8009190
191.4017 2.867271
191.8838 3.950653
192.3659 4.028938
192.8480 3.912361
193.3301 3.916283
193.8123 4.020256
194.2944 4.165077
194.7765 4.398193
195.2586 4.558289
195.7407 4.407532
196.2228 3.939804
196.7050 3.586586
197.1871 3.782494
197.6692 4.476044
198.1513 4.943413
198.6334 5.096733
199.1155 4.909470
199.5977 4.161041
200.0798 2.935417
200.5619 1.805779
201.0440 1.815170
201.5261 3.207344
202.0082 4.147293
202.4904 4.129395
202.9725 3.806168
203.4546 3.454277
203.9367 3.159180
204.4188 2.900162
204.9009 2.924843
205.3831 2.629646
205.8652 2.392357
206.3473 2.781075
206.8294 3.231102
207.3115 3.485008
207.7936 3.541664
208.2758 3.464981
208.7579 3.131485
209.2400 2.422523
209.7221 2.175072
210.2042 2.674294
210.6863 3.264694
211.1685 3.783707
211.6506 4.152252
212.1327 4.374374
212.6148 4.460732
213.0969 4.434708
213.5790 4.165535
214.0612 3.405151
214.5433 2.581932
215.0254 1.989975
215.5075 1.711639
215.9896 1.657562
216.4717 1.719582
216.9539 1.970139
217.4360 2.170013
217.9181 2.294815
218.4002 2.378029
218.8823 2.526466
219.3644 2.767380
219.8466 2.854462
220.3287 2.266251
220.8108 0.7480320
221.2929 6.4389999E-03
221.7750 1.059059
222.2571 2.709862
222.7393 3.358429
223.2214 2.581200
223.7035 1.357742
224.1856 0.9411010
224.6677 1.261131
225.1498 1.476852
225.6320 1.187042
226.1141 0.7065580
226.5962 0.5593950
227.0783 0.8642880
227.5604 1.407379
228.0425 2.239883
228.5247 3.240410
229.0068 3.755569
229.4889 3.320213
229.9710 2.239784
230.4531 1.053741
230.9352 0.4338610
231.4174 1.462418
231.8995 1.183403
232.3816 1.4435000E-02
232.8637 1.108528
233.3458 1.501442
233.8279 1.399139
234.3101 1.540382
234.7922 2.213203
235.2743 2.645332
235.7564 2.287964
236.2385 1.409279
236.7206 0.5809100
237.2028 1.8051000E-02
237.6849 0.2394030
238.1670 6.7359999E-02
238.6491 1.522980
239.1312 2.661499
239.6133 2.836899
240.0955 2.349068
240.5776 1.639328
241.0597 0.7903210
241.5418 2.6314000E-02
242.0239 0.1334230
242.5060 2.282974
242.9882 4.038559
243.4703 4.585838
243.9524 4.358849
244.4345 3.976257
244.9166 3.774368
245.3987 3.736389
245.8809 3.749168
246.3630 3.794899
246.8451 3.911514
247.3272 4.255722
247.8093 4.628410
248.2914 4.748909
248.7736 4.542923
249.2557 4.037315
249.7378 3.443825
250.2199 2.296722
250.7020 1.704941
251.1841 2.167320
251.6663 3.094566
252.1484 3.823280
252.6305 4.036545
253.1126 3.892357
253.5947 3.885811
254.0768 4.345558
254.5590 4.540924
255.0411 4.102318
255.5232 3.506958
256.0053 3.254486
256.4874 3.558350
256.9695 4.313164
257.4517 5.266617
257.9338 7.052536
258.4159 8.271744
258.8980 8.647026
259.3801 8.548897
259.8622 8.240364
260.3444 7.829201
260.8265 7.519775
261.3086 7.559380
261.7907 8.297722
262.2728 8.747757
262.7549 8.810623
263.2371 8.606407
263.7192 8.132797
264.2013 7.404869
264.6834 6.754356
265.1655 6.699425
265.6476 7.539528
266.1298 8.320053
266.6119 9.206810
267.0940 9.934616
267.5761 10.08514
268.0582 9.615295
268.5403 9.108681
269.0225 9.355194
269.5046 10.66805
269.9867 11.18204
270.4688 10.08044
270.9509 8.646622
271.4330 8.071869
271.9152 8.470596
272.3973 9.014572
272.8794 8.876587
273.3615 7.994598
273.8436 7.455872
274.3257 7.578606
274.8079 7.836769
275.2900 7.790253
275.7721 7.429764
276.2542 7.067993
276.7363 6.974342
277.2184 7.102013
277.7006 7.017822
278.1827 6.431030
278.6648 5.852272
279.1469 5.653748
279.6290 5.851349
280.1111 6.173378
280.5933 6.489754
281.0754 6.805359
281.5575 7.154655
282.0396 7.819664
282.5217 8.193733
283.0038 7.605095
283.4860 6.260017
283.9681 5.303078
284.4502 5.442734
284.9323 6.142387
285.4144 6.186073
285.8965 5.279129
286.3787 4.456528
286.8608 4.387711
287.3429 4.894867
287.8250 5.397079
288.3071 5.862740
288.7892 5.948082
289.2714 5.037247
289.7535 3.064621
290.2356 1.531609
290.7177 1.430481
291.1998 2.218605
291.6819 2.372879
292.1641 1.259239
292.6462 4.8531000E-02
293.1283 0.2157590
293.6104 1.580612
294.0925 2.805473
294.5746 3.375443
295.0568 3.432770
295.5389 3.116058
296.0210 2.277397
296.5031 1.699158
296.9852 2.473923
297.4673 4.100327
297.9495 5.198318
298.4316 5.080788
298.9137 4.265709
299.3958 3.378777
299.8779 2.401848
300.3600 1.711159
300.8422 1.796196
301.3243 2.279770
301.8064 2.517784
302.2885 2.231995
302.7706 1.779770
303.2527 1.532990
303.7349 1.494316
304.2170 1.619705
304.6991 2.045128
305.1812 2.550598
305.6633 2.876648
306.1454 3.033699
306.6276 2.899780
307.1097 2.150452
307.5918 0.8378220
308.0739 0.1387250
308.5560 0.3730700
309.0381 0.2029420
309.5203 4.1076999E-02
310.0024 9.7038001E-02
310.4845 0.2717670
310.9666 0.5718460
311.4487 0.9601670
311.9308 1.247200
312.4130 1.371193
312.8951 1.412498
313.3772 1.510239
313.8593 1.636459
314.3414 1.575089
314.8235 0.9196170
315.3057 7.5610001E-03
315.7878 0.1320720
316.2699 0.9556580
316.7520 1.919037
317.2341 1.471718
317.7162 0.1515580
318.1984 0.9096530
318.6805 1.263939
319.1626 1.145363
319.6447 0.8427660
320.1268 0.3124620
320.6089 0.1855390
321.0911 0.4948580
321.5732 0.6828540
322.0553 0.8414310
322.5374 1.028900
323.0195 1.127739
323.5016 0.8884580
323.9838 0.3043820
324.4659 1.3657000E-02
324.9480 0.5405500
325.4301 1.287399
325.9122 1.440315
326.3943 0.8372570
326.8765 0.2806020
327.3586 0.4904020
327.8407 1.310883
328.3228 1.863213
328.8049 1.885422
329.2870 1.652695
329.7692 1.241676
330.2513 0.6936800
330.7334 0.6822280
331.2155 2.091202
331.6976 4.220337
332.1797 5.335228
332.6619 5.017792
333.1440 4.354607
333.6261 3.998276
334.1082 3.951584
334.5903 4.346420
335.0724 5.660927
335.5546 7.222191
336.0367 7.796318
336.5188 7.190186
337.0009 7.400490
337.4830 9.816559
337.9651 13.83020
338.4473 18.27063
338.9294 23.23582
339.4115 28.25991
339.8936 33.00251
340.3757 37.48639
340.8578 41.80856
341.3400 46.33104
341.8221 50.33902
342.3042 52.86255
342.7863 53.79718
343.2684 54.10764
343.7505 53.49564
344.2327 52.63234
344.7148 53.27863
345.1969 56.04538
345.6790 59.73392
346.1611 62.78304
346.6432 65.36337
347.1254 69.12238
347.6075 75.25768
348.0896 82.37899
348.5717 88.51010
349.0538 93.49886
349.5359 98.73975
350.0181 104.7770
350.5002 112.0240
350.9823 121.6374
351.4644 133.9684
351.9465 148.3935
352.4286 164.2366
352.9108 181.6826
353.3929 201.9924
353.8750 225.7333
354.3571 252.7675
354.8392 283.1046
355.3214 318.7126
355.8035 352.6561
356.2856 385.7431
356.7677 414.8075
357.2498 435.8286
357.7319 448.4827
358.2141 448.2503
358.6962 425.7884
359.1783 378.1625
359.6604 327.6185
360.1425 270.6779
360.6246 215.2901
361.1068 168.5904
361.5889 131.0176
362.0710 101.1827
362.5531 78.51897
363.0352 63.21750
363.5173 50.63872
363.9995 41.10007
364.4816 33.58110
364.9637 28.10587
365.4458 24.31859
365.9279 21.55605
366.4100 19.60532
366.8922 18.22680
367.3743 16.59200
367.8564 14.40146
368.3385 12.38416
368.8206 10.54762
369.3027 8.962044
369.7849 7.749245
370.2670 6.939743
370.7491 6.411804
371.2312 6.002129
371.7133 5.693634
372.1954 5.611549
372.6776 6.118217
373.1597 6.521385
373.6418 6.281319
374.1239 5.528313
374.6060 4.784378
375.0881 4.481323
375.5703 4.600693
376.0524 4.562416
376.5345 4.491714
377.0166 4.245407
377.4987 3.607605
377.9808 2.842461
378.4630 2.254433
378.9451 1.960777
379.4272 1.964714
379.9093 2.335190
380.3914 3.690079
380.8735 4.345100
381.3557 3.945061
381.8378 3.116623
382.3199 2.140305
382.8020 1.163895
383.2841 0.3931350
383.7662 9.6680000E-02
384.2484 0.3406220
384.7305 0.5818710
385.2126 1.022972
385.6947 1.265038
386.1768 0.8458400
386.6589 0.1443710
387.1411 4.4479001E-02
387.6232 0.8551790
388.1053 2.460625
388.5874 3.367165
389.0695 3.219315
389.5516 3.015572
390.0338 3.133423
390.5159 3.233444
390.9980 2.950027
391.4801 2.185501
391.9622 1.260567
392.4443 0.4927440
392.9265 0.1319810
393.4086 0.4515000
393.8907 0.3174060
394.3728 3.7498001E-02
394.8549 0.6419370
395.3370 1.387672
395.8192 1.913910
396.3013 1.802406
396.7834 1.299706
397.2655 1.289375
397.7476 1.983231
398.2297 2.618546
398.7119 2.811920
399.1940 2.703117
399.6761 2.403076
400.1582 1.869705
400.6403 1.308151
401.1224 0.9329610
401.6046 0.7322080
402.0867 0.5753330
402.5688 0.4776690
403.0509 0.3431170
403.5330 1.4290000E-02
404.0151 0.6057890
404.4973 1.001411
404.9794 1.048569
405.4615 0.7686390
405.9436 7.0039998E-03
406.4257 1.338562
406.9078 2.438560
407.3900 2.432663
407.8721 1.534912
408.3542 0.9679640
408.8363 0.9482190
409.3184 1.161537
409.8005 1.646011
410.2827 2.248390
410.7648 2.326401
411.2469 1.443504
411.7290 0.1853180
412.2111 1.9096000E-02
412.6932 1.534531
413.1754 2.496246
413.6575 2.125237
414.1396 1.230209
414.6217 0.5780260
415.1038 0.3222120
415.5859 0.3325880
416.0681 0.5247880
416.5502 0.9315640
417.0323 1.131866
417.5144 0.9197460
417.9965 0.7504350
418.4786 0.9381640
418.9608 1.289886
419.4429 1.374359
419.9250 0.9547270
420.4071 0.2601240
420.8892 5.7007000E-02
421.3713 0.3077930
421.8535 0.5695190
422.3356 0.7212070
422.8177 0.7619170
423.2998 0.5945510
423.7819 0.2657470
424.2640 2.2758000E-02
424.7462 0.1456070
425.2283 0.6626430
425.7104 1.130524
426.1925 1.700760
426.6746 2.044762
427.1567 1.900467
427.6389 1.469315
428.1210 1.201210
428.6031 1.306534
429.0852 1.620667
429.5673 1.843544
430.0494 1.993706
430.5316 2.022263
431.0137 1.593651
431.4958 1.174889
431.9779 1.260811
432.4600 1.873619
432.9421 2.583893
433.4243 3.256920
433.9064 3.797821
434.3885 3.663521
434.8706 2.484917
435.3527 1.434021
435.8348 1.364052
436.3170 1.908318
436.7991 2.535652
437.2812 3.231422
437.7633 3.808090
438.2454 4.149620
438.7275 4.242599
439.2097 3.874374
439.6918 2.697121
440.1739 1.438736
440.6560 1.360474
441.1381 2.533165
441.6202 3.500290
442.1024 3.762413
442.5845 3.681129
443.0666 3.611511
443.5487 3.557686
444.0308 3.420090
444.5129 3.045341
444.9951 2.491951
445.4772 2.297302
445.9593 2.877075
446.4414 3.278114
446.9235 3.014244
447.4056 2.448929
447.8878 2.242676
448.3699 2.560028
448.8520 2.932831
449.3341 2.615402
449.8162 1.081398
450.2983 0.3922040
450.7805 1.116188
451.2626 2.010597
451.7447 2.598854
452.2268 2.834755
452.7089 2.758095
453.1910 2.366470
453.6732 1.759186
454.1553 1.348610
454.6374 1.136429
455.1195 1.143120
455.6016 1.628441
456.0837 2.137527
456.5659 2.160988
457.0480 1.658920
457.5301 1.200645
458.0122 1.535469
458.4943 2.640770
458.9764 3.245354
459.4586 3.073196
459.9407 2.735580
460.4228 2.438454
460.9049 2.232735
461.3870 2.228806
461.8691 2.501167
462.3513 2.878372
462.8334 3.319786
463.3155 3.822075
463.7976 3.791321
464.2797 2.631081
464.7618 1.283325
465.2440 1.124275
465.7261 2.177368
466.2082 2.841705
466.6903 2.064751
467.1724 0.8880620
467.6545 0.7238920
468.1367 1.624908
468.6188 2.491455
469.1009 2.515579
469.5830 1.927200
470.0651 1.901497
470.5472 3.193390
471.0294 4.017677
471.5115 3.498322
471.9936 2.439354
472.4757 1.900185
472.9578 2.134537
473.4399 2.596687
473.9221 2.628448
474.4042 2.140099
474.8863 1.733551
475.3684 1.428345
475.8505 1.168907
476.3326 0.9726330
476.8148 0.8014830
477.2969 0.5387880
477.7790 0.1194230
478.2611 0.2539830
478.7432 3.2752998E-02
479.2253 1.173042
479.7075 1.866638
480.1896 1.375412
480.6717 0.7491070
481.1538 0.5583880
481.6359 0.7720110
482.1180 1.033905
482.6002 1.176003
483.0823 1.171120
483.5644 0.7933880
484.0465 0.1723710
484.5286 0.6956560
485.0107 4.4098001E-02
485.4929 1.297310
485.9750 2.328056
486.4571 3.144562
486.9392 3.283836
487.4213 1.723213
487.9034 0.6155780
488.3856 1.496040
488.8677 0.4455180
489.3498 1.055038
489.8319 1.836151
490.3140 1.904938
490.7961 1.880211
491.2783 1.720665
491.7604 1.515106
492.2425 1.212318
492.7246 0.9076610
493.2067 0.7542570
493.6888 0.8080670
494.1710 1.087410
494.6531 1.710648
495.1352 3.083855
495.6173 3.458855
496.0994 1.911339
496.5815 0.4165880
497.0637 2.8930999E-02
497.5458 0.4421620
498.0279 0.8657530
498.5100 0.8647310
498.9921 0.5667720
499.4742 0.2262420
499.9564 0.3151860
500.4385 0.4188610
500.9206 0.3623660
501.4027 1.205086
501.8848 1.744347
502.3669 1.974503
502.8491 1.978271
503.3312 1.799141
503.8133 1.502480
504.2954 0.9469070
504.7775 0.1035690
505.2596 0.4335100
505.7418 0.2858350
506.2239 0.2865680
506.7060 0.9504620
507.1881 1.731026
507.6702 2.456352
508.1523 2.981873
508.6345 3.414719
509.1166 3.881943
509.5987 4.402283
510.0808 5.125694
510.5629 6.251221
511.0450 7.722939
511.5272 8.927132
512.0093 9.592621
512.4914 10.36161
512.9735 11.61584
513.4556 13.03000
513.9377 14.00441
514.4199 14.43632
514.9020 15.02866
515.3841 16.73667
515.8662 19.77805
516.3483 22.41915
516.8304 23.73917
517.3126 25.62291
517.7947 28.81165
518.2768 32.84079
518.7589 37.03951
519.2410 41.17458
519.7231 45.31299
520.2053 49.72530
520.6874 54.43198
521.1695 59.32277
521.6516 64.35428
522.1337 69.62151
522.6158 74.74103
523.0980 80.07255
523.5801 86.71027
524.0622 95.13559
524.5443 104.8590
525.0264 115.9463
525.5085 128.2217
525.9907 140.1969
526.4728 151.6476
526.9549 162.0946
527.4370 170.6932
527.9191 177.3911
528.4012 183.2699
528.8834 187.5034
529.3655 191.7509
529.8476 196.3909
530.3297 201.9927
530.8118 209.7756
531.2939 220.4280
531.7761 233.4267
532.2582 247.7193
532.7403 265.4270
533.2224 280.3795
533.7045 295.9135
534.1866 306.0736
534.6688 309.2523
535.1509 304.1175
535.6330 287.7962
536.1151 256.7494
536.5972 215.3914
537.0793 173.4834
537.5615 129.5337
538.0436 92.08503
538.5257 64.64783
539.0078 44.80416
539.4899 31.54004
539.9720 24.47523
540.4542 19.69024
540.9363 15.98904
541.4184 13.13342
541.9005 10.90237
542.3826 9.239655
542.8647 7.884300
543.3469 6.630402
543.8290 5.530418
544.3111 4.759819
544.7932 4.460281
545.2753 4.096497
545.7574 3.515083
546.2396 2.815704
546.7217 2.075111
547.2038 1.357674
547.6859 1.039413
548.1680 1.450569
548.6501 2.371498
549.1323 2.822098
549.6144 2.612114
550.0965 2.231590
550.5786 1.407372
551.0607 0.7042540
551.5428 0.6937940
552.0250 1.287933
552.5071 1.797569
552.9892 1.652168
553.4713 1.079559
553.9534 0.7033920
554.4355 0.5185850
554.9177 0.5336230
555.3998 0.9834900
555.8819 1.465645
556.3640 1.398994
556.8461 0.7056500
557.3282 4.2389002E-02
557.8104 0.6516720
558.2925 1.020706
558.7746 0.1865230
559.2567 1.639084
559.7388 2.737015
560.2209 1.912834
560.7031 0.1096500
561.1852 1.018219
561.6673 0.4383540
562.1494 1.261795
562.6315 0.7682570
563.1136 0.1039200
563.5958 0.2798610
564.0779 1.187347
564.5600 2.018814
565.0421 2.211510
565.5242 1.926392
566.0063 1.634102
566.4885 1.214195
566.9706 1.153763
567.4527 2.288643
567.9348 3.276047
568.4169 2.845016
568.8990 1.183861
569.3812 5.9532002E-02
569.8633 0.3800430
570.3454 1.534622
570.8275 2.036148
571.3096 1.904037
571.7917 1.592628
572.2739 1.228493
572.7560 0.8756260
573.2381 0.6169890
573.7202 0.3965530
574.2023 0.4799800
574.6844 1.498932
575.1666 2.296837
575.6487 1.646576
576.1308 0.1079940
576.6129 0.7411420
577.0950 5.9586000E-02
577.5771 1.488029
578.0593 2.468781
578.5414 2.754303
579.0235 2.833206
579.5056 2.785843
579.9877 2.468925
580.4698 1.404411
580.9520 3.6979999E-02
581.4341 0.5842510
581.9162 0.2520290
582.3983 1.528542
582.8804 1.736923
583.3625 1.001579
583.8447 0.7281490
584.3268 1.407196
584.8089 2.250496
585.2910 2.341980
585.7731 1.779762
586.2552 1.553139
586.7374 2.258781
587.2195 2.784309
587.7016 2.117981
588.1837 1.021507
588.6658 0.9320910
589.1479 2.254272
589.6301 3.837669
590.1122 4.194038
590.5943 3.150459
591.0764 2.536636
591.5585 3.102577
592.0406 3.215042
592.5228 1.900932
593.0049 0.2070770
593.4870 0.5493090
593.9691 4.4914000E-02
594.4512 0.8117520
594.9333 1.160133
595.4155 1.142029
595.8976 1.426315
596.3797 2.147522
596.8618 2.728813
597.3439 2.802773
597.8260 2.505157
598.3082 2.166023
598.7903 1.640938
599.2724 1.433342
599.7545 2.143394
600.2366 2.982780
600.7188 2.896210
601.2009 1.981056
601.6830 1.289467
602.1651 1.577705
602.6472 2.549446
603.1293 3.118355
603.6115 3.183113
604.0936 3.008507
604.5757 2.199928
605.0578 1.543510
605.5399 1.736382
606.0220 2.543564
606.5042 3.129173
606.9863 2.912491
607.4684 2.297829
607.9505 2.005753
608.4326 2.078857
608.9147 2.148430
609.3969 2.169106
609.8790 2.072510
610.3611 1.642647
610.8432 0.9241180
611.3253 0.5750120
611.8074 0.9327090
612.2896 1.395882
612.7717 1.729958
613.2538 1.952614
613.7359 1.987083
614.2180 1.854431
614.7001 1.765892
615.1823 2.004898
615.6644 2.570862
616.1465 2.843735
616.6286 2.714874
617.1107 2.584625
617.5928 2.570122
618.0750 2.557838
618.5571 2.383011
619.0392 1.996567
619.5213 1.666618
620.0034 1.436394
620.4855 1.263649
620.9677 1.017448
621.4498 0.7330090
621.9319 0.6308980
622.4140 0.8438110
622.8961 1.238220
623.3782 1.669373
623.8604 2.255409
624.3425 2.510658
624.8246 2.185303
625.3067 1.709251
625.7888 1.170975
626.2709 0.7574770
626.7531 0.8864290
627.2352 1.741142
627.7173 2.806648
628.1994 2.987083
628.6815 2.045471
629.1636 1.546265
629.6458 1.952991
630.1279 2.307648
630.6100 1.934380
631.0921 1.232376
631.5742 0.9679530
632.0563 1.491112
632.5385 2.010017
633.0206 1.822315
633.5027 1.248390
633.9848 0.8423230
634.4669 0.6592370
634.9490 0.8862720
635.4312 1.692425
635.9133 2.868912
636.3954 3.444389
636.8775 2.779987
637.3596 2.315487
637.8417 2.320198
638.3239 2.355503
638.8060 1.984291
639.2881 1.307949
639.7702 0.8913000
640.2523 1.017391
640.7344 1.442177
641.2166 1.790512
641.6987 2.073372
642.1808 2.029099
642.6629 1.393688
643.1450 0.7552260
643.6271 0.8342020
644.1093 1.392082
644.5914 1.537041
645.0735 0.5520740
645.5556 0.1888960
646.0377 0.2573740
646.5198 1.211636
647.0020 1.599480
647.4841 1.276394
647.9662 1.027271
648.4483 1.630547
648.9304 2.885033
649.4125 3.335499
649.8947 2.534142
650.3768 1.753185
650.8589 0.9588890
651.3410 0.4074250
651.8231 0.5835190
652.3052 1.326694
652.7874 1.870796
653.2695 1.742180
653.7516 1.321205
654.2337 0.9975700
654.7158 0.7727170
655.1979 0.6518710
655.6801 0.6299210
656.1622 0.7722850
656.6443 1.250065
657.1264 2.110340
657.6085 2.347622
658.0906 1.154789
658.5728 0.4338800
659.0549 1.058437
659.5370 2.115551
660.0191 2.704945
660.5012 2.676075
660.9833 2.369095
661.4655 2.017971
661.9476 1.627430
662.4297 1.218182
662.9118 0.7886350
663.3939 0.3112830
663.8760 0.4197240
664.3582 0.9636610
664.8403 0.5920720
665.3224 0.6073270
665.8045 1.497742
666.2866 1.786156
666.7687 1.841679
667.2509 1.680492
667.7330 1.483646
668.2151 1.681816
668.6972 2.315662
669.1793 2.716007
669.6614 2.037312
670.1436 0.4172900
670.6257 2.7008001E-02
671.1078 1.500820
671.5899 2.550705
672.0720 1.976189
672.5541 0.9886400
673.0363 0.4640460
673.5184 0.4425240
674.0005 0.6100390
674.4826 1.100819
674.9647 1.504452
675.4468 1.200264
675.9290 0.4597820
676.4111 0.2123830
676.8932 0.7576330
677.3753 1.389027
677.8574 1.226891
678.3395 0.2259480
678.8217 0.3904720
679.3038 0.4682200
679.7859 0.3350140
680.2680 0.2836800
680.7501 0.8735660
681.2322 0.8550910
681.7144 0.2568470
682.1965 0.2799070
682.6786 0.2314640
683.1607 6.0123000E-02
683.6428 2.2495000E-02
684.1249 0.4270820
684.6071 0.6728970
685.0892 0.5513190
685.5713 0.2657970
686.0534 0.1059340
686.5355 3.2646000E-02
687.0176 0.3017770
687.4998 1.301628
687.9819 2.032791
688.4640 2.148460
688.9461 1.951916
689.4282 1.656658
689.9103 1.364254
690.3925 1.225018
690.8746 1.472816
691.3567 1.848095
691.8388 1.627296
692.3209 0.7821730
692.8030 0.1095390
693.2852 0.2229190
693.7673 0.2383800
694.2494 0.2131120
694.7315 1.079613
695.2136 1.534653
695.6957 1.120560
696.1779 0.8121110
696.6600 1.143600
697.1421 1.636063
697.6242 1.628227
698.1063 1.144409
698.5884 0.8585130
699.0706 1.364998
699.5527 2.287788
700.0348 2.478416
700.5169 1.804207
700.9990 1.227150
701.4811 0.9140780
701.9633 0.7858280
702.4454 0.6802830
702.9275 0.6753620
703.4096 1.114899
703.8917 2.724182
704.3738 3.964264
704.8560 3.901672
705.3381 3.282166
705.8202 2.878487
706.3023 2.838684
706.7844 3.137093
707.2665 3.806114
707.7487 4.620277
708.2308 4.863716
708.7129 4.346283
709.1950 4.152885
709.6771 4.618576
710.1592 5.180466
710.6414 5.630928
711.1235 5.888412
711.6056 5.705254
712.0877 4.809029
712.5698 4.018143
713.0519 3.723038
713.5341 3.758369
714.0162 4.081398
714.4983 4.577499
714.9804 4.854095
715.4625 4.665245
715.9446 4.305084
716.4268 4.463600
716.9089 5.344063
717.3910 5.881012
717.8731 5.970535
718.3552 5.808533
718.8373 5.336220
719.3195 4.746490
719.8016 4.312889
720.2837 4.082191
720.7658 3.949852
721.2479 3.829605
721.7300 3.766663
722.2122 4.037354
722.6943 4.524742
723.1764 4.646660
723.6585 4.080482
724.1406 3.131783
724.6227 2.152840
725.1049 1.047546
725.5870 0.8352130
726.0691 2.147072
726.5512 3.332863
727.0333 3.916054
727.5154 4.057304
727.9976 3.713127
728.4797 2.895836
728.9618 2.354828
729.4439 2.482826
729.9260 2.908554
730.4081 3.533455
730.8903 4.159767
731.3724 4.287193
731.8545 3.791000
732.3366 3.087547
732.8187 2.616890
733.3008 2.350700
733.7830 1.872490
734.2651 0.8333440
734.7472 0.3370740
735.2293 1.144218
735.7114 2.153130
736.1935 2.678619
736.6757 2.699898
737.1578 2.437340
737.6399 1.711205
738.1220 1.080856
738.6041 0.9612810
739.0862 1.105530
739.5684 1.153336
740.0505 1.014664
740.5326 0.7961350
741.0147 0.5751880
741.4968 0.2840580
741.9789 0.3782350
742.4611 1.748573
742.9432 2.133232
743.4253 0.6516420
743.9074 0.9544750
744.3895 1.806259
744.8716 2.079498
745.3538 2.008446
745.8359 1.542282
746.3180 1.019882
746.8001 0.3288420
747.2822 0.1495820
747.7643 0.1731490
748.2465 1.081581
748.7286 1.861641
749.2107 2.186531
749.6928 2.216591
750.1749 2.167534
750.6570 2.032242
751.1392 1.757111
751.6213 1.077568
752.1034 0.9628140
752.5855 2.092819
753.0676 3.742058
753.5497 4.992973
754.0319 5.819252
754.5140 6.795616
754.9961 7.647964
755.4782 9.116142
755.9603 11.03886
756.4424 14.12437
756.9246 18.85614
757.4067 25.63957
757.8888 35.71214
758.3709 50.25746
758.8530 68.94762
759.3351 92.39409
759.8173 121.7741
760.2994 145.6232
760.7815 162.2908
761.2636 171.0216
761.7457 166.9953
762.2278 153.5639
762.7100 147.2666
763.1921 150.4041
763.6742 157.6064
764.1563 167.5103
764.6384 181.1060
765.1205 199.5434
765.6027 222.4643
766.0848 248.4576
766.5669 276.8944
767.0490 309.0055
767.5311 341.6366
768.0132 378.1113
768.4954 432.6718
768.9775 504.1965
769.4596 615.3099
769.9417 784.7145
770.4238 989.3370
770.9059 1189.565
771.3881 1380.093
771.8702 1586.498
772.3523 1907.018
772.8344 2127.786
773.3165 2193.136
773.7986 2108.762
774.2808 1831.376
774.7629 1389.930
775.2450 955.0638
775.7271 624.5002
776.2092 382.6873
776.6913 224.3864
777.1735 138.3172
777.6556 85.16207
778.1377 56.48341
778.6198 41.25991
779.1019 31.40812
779.5840 26.18446
780.0662 22.01080
780.5483 19.48478
781.0304 16.87772
781.5125 13.32070
781.9946 10.44808
782.4767 9.309708
782.9589 9.357414
783.4410 9.652184
783.9231 10.07991
784.4052 10.14198
784.8873 9.211449
785.3694 7.970200
785.8516 7.256538
786.3337 7.006989
786.8158 6.919739
787.2979 6.865250
787.7800 6.470970
788.2621 5.019577
788.7443 2.587700
789.2264 1.525597
789.7085 2.435814
790.1906 3.016106
790.6727 2.234947
791.1548 1.211716
791.6370 1.232048
792.1191 2.111542
792.6012 2.543587
793.0833 1.915321
793.5654 1.336227
794.0475 1.299782
794.5297 1.463043
795.0118 1.427856
795.4939 1.237526
795.9760 1.250465
796.4581 1.694412
796.9402 2.230400
797.4224 2.341026
797.9045 2.075508
798.3866 1.710342
798.8687 1.244247
799.3508 0.8921810
799.8329 0.7311710
800.3151 0.7247700
800.7972 1.032623
801.2793 1.998802
801.7614 2.329140
802.2435 1.226303
802.7256 0.4835360
803.2078 1.051476
803.6899 1.956085
804.1720 2.106964
804.6541 1.490593
805.1362 0.8861540
805.6183 0.6706850
806.1005 0.7776490
806.5826 1.408798
807.0647 2.257965
807.5468 2.506493
808.0289 2.082428
808.5110 1.770172
808.9932 2.173264
809.4753 2.907928
809.9574 2.861382
810.4395 1.763336
810.9216 1.128166
811.4037 1.307381
811.8859 1.494560
812.3680 1.287033
812.8501 0.8443680
813.3322 0.2543110
813.8143 0.5818330
814.2964 0.7951470
814.7786 0.5085910
815.2607 1.747276
815.7428 1.823593
816.2249 1.338722
816.7070 1.164757
817.1891 1.459846
817.6713 1.904976
818.1534 2.402992
818.6355 2.675995
819.1176 1.908180
819.5997 0.2809140
820.0818 0.7560040
820.5640 0.9268300
821.0461 0.6812480
821.5282 0.2898410
822.0103 0.2384000
822.4924 0.8965910
822.9745 1.920780
823.4567 2.554634
823.9388 2.740524
824.4209 2.609032
824.9030 1.756531
825.3851 0.8398860
825.8672 0.8774110
826.3494 1.986485
826.8315 2.925167
827.3136 2.906387
827.7957 2.680153
828.2778 3.031384
828.7599 3.580971
829.2421 3.473587
829.7242 2.652660
830.2063 1.934471
830.6884 1.961388
831.1705 2.450306
831.6526 2.724049
832.1348 2.806622
832.6169 2.808807
833.0990 2.666386
833.5811 2.579525
834.0632 2.697311
834.5453 2.975739
835.0275 3.345276
835.5096 4.006886
835.9917 4.123287
836.4738 3.149765
836.9559 2.246494
837.4380 1.687847
837.9202 1.514355
838.4023 2.051361
838.8844 3.132061
839.3665 3.614632
839.8486 2.273598
840.3307 0.8348920
840.8129 1.465595
841.2950 3.156471
841.7771 3.791100
842.2592 3.187279
842.7413 2.524529
843.2234 2.590027
843.7056 3.059635
844.1877 3.165848
844.6698 2.814690
845.1519 2.409714
845.6340 1.804195
846.1161 1.640507
846.5983 2.521034
847.0804 3.668602
847.5625 3.925568
848.0446 3.234409
848.5267 2.681080
849.0089 2.249184
849.4910 2.036297
849.9731 2.223488
850.4552 2.521103
850.9373 2.758736
851.4194 2.869007
851.9016 2.731342
852.3837 2.116455
852.8658 1.607681
853.3479 1.900940
853.8300 2.603939
854.3121 3.061596
854.7943 3.249218
855.2764 3.379658
855.7585 3.544586
856.2406 3.536873
856.7227 2.955654
857.2048 1.896187
857.6870 1.699894
858.1691 2.645489
858.6512 3.377846
859.1333 3.602009
859.6154 3.448380
860.0975 2.932186
860.5797 2.111416
861.0618 1.327667
861.5439 4.0824998E-02
862.0260 0.4255910
862.5081 0.6646800
862.9902 2.008675
863.4724 3.070850
863.9545 3.811008
864.4366 4.123486
864.9187 3.934410
865.4008 3.599659
865.8829 3.199608
866.3651 2.928360
866.8472 3.159725
867.3293 3.673367
867.8114 3.911385
868.2935 3.752197
868.7756 3.416889
869.2578 3.048763
869.7399 2.674042
870.2220 2.358112
870.7041 2.102432
871.1862 1.849819
871.6683 1.518867
872.1505 1.434849
872.6326 1.886234
873.1147 2.584484
873.5968 3.160126
874.0789 3.704758
874.5610 3.608620
875.0432 2.140793
875.5253 1.027786
876.0074 0.7286000
876.4895 0.8820800
876.9716 1.370296
877.4537 2.036732
877.9359 2.463078
878.4180 2.508793
878.9001 2.366249
879.3822 1.972168
879.8643 1.569118
880.3464 1.584900
880.8286 1.834377
881.3107 1.594574
881.7928 0.6555520
882.2749 0.1434780
882.7570 0.2145880
883.2391 1.365486
883.7213 2.238125
884.2034 2.835655
884.6855 3.083351
885.1676 2.933002
885.6497 2.629131
886.1318 2.301044
886.6140 2.032711
887.0961 2.189461
887.5782 3.298786
888.0603 3.436253
888.5424 1.826771
889.0245 0.3011050
889.5067 0.4944270
889.9888 0.7729680
890.4709 0.6828350
890.9530 0.2285880
891.4351 0.2583310
891.9172 0.9893110
892.3994 1.372101
892.8815 0.7385980
893.3636 2.7713999E-02
893.8457 9.7073004E-02
894.3278 0.9185910
894.8099 1.407406
895.2921 1.156055
895.7742 0.7680020
896.2563 0.8100740
896.7384 1.086452
897.2205 1.389606
897.7026 1.629025
898.1848 1.432777
898.6669 0.7073750
899.1490 1.8657999E-02
899.6311 0.2054410
900.1132 2.5883000E-02
900.5953 0.2420730
901.0775 0.9401130
901.5596 0.9223560
902.0417 0.1868060
902.5238 1.358898
903.0059 2.059933
903.4880 2.350368
903.9702 2.295612
904.4523 1.738010
904.9344 1.475849
905.4165 1.888309
905.8986 2.091061
906.3807 1.640770
906.8629 1.107521
907.3450 1.137772
907.8271 1.567070
908.3092 1.539234
908.7913 0.5000650
909.2734 0.2821430
909.7556 4.5130001E-03
910.2377 0.5706630
910.7198 0.8257060
911.2019 0.8359110
911.6840 0.8181110
912.1661 0.8290600
912.6483 0.8964690
913.1304 1.120110
913.6125 1.398693
914.0946 1.611187
914.5767 1.727207
915.0588 1.441669
915.5410 0.7897610
916.0231 0.7687870
916.5052 2.123325
916.9873 3.804783
917.4694 3.462105
917.9515 0.9758760
918.4337 5.7994999E-02
918.9158 0.7016640
919.3979 1.433716
919.8800 1.573147
920.3621 1.309811
920.8442 0.6280290
921.3264 0.3825950
921.8085 0.7514340
922.2906 7.1677998E-02
922.7727 0.5824890
923.2548 1.491520
923.7369 2.022701
924.2191 1.407898
924.7012 0.4235920
925.1833 0.3820650
925.6654 1.475643
926.1475 2.419273
926.6296 2.687725
927.1118 2.878803
927.5939 3.379177
928.0760 3.905338
928.5581 4.141792
929.0402 4.096260
929.5223 3.912342
930.0045 3.630737
930.4866 3.388695
930.9687 3.378551
931.4508 3.450615
931.9329 3.203629
932.4150 2.800331
932.8972 3.181561
933.3793 4.478928
933.8614 5.301113
934.3435 4.279346
934.8256 2.291744
935.3077 1.556252
935.7899 1.994019
936.2720 2.407555
936.7541 2.686359
937.2362 2.501232
937.7183 1.535095
938.2004 0.5330540
938.6826 0.7266850
939.1647 2.145611
939.6468 2.672577
940.1289 1.749329
940.6110 1.315380
941.0931 2.164494
941.5753 3.004745
942.0574 2.680656
942.5395 1.709106
943.0216 1.564293
943.5037 2.673721
943.9858 3.290020
944.4680 2.813648
944.9501 2.395660
945.4322 2.486881
945.9143 2.826118
946.3964 3.394619
946.8785 3.987831
947.3607 3.786339
947.8428 2.059513
948.3249 0.5668300
948.8070 0.3823740
949.2891 0.7813800
949.7712 1.448143
950.2534 2.025238
950.7355 1.717766
951.2176 0.4669690
951.6997 0.3995170
952.1818 0.3183630
952.6639 1.677998
953.1461 2.607861
953.6282 3.126968
954.1103 3.149437
954.5924 2.760040
955.0745 2.319675
955.5566 2.005283
956.0388 1.775372
956.5209 1.451694
957.0030 1.138802
957.4851 1.698765
957.9672 3.147232
958.4493 3.685642
958.9315 2.838501
959.4136 1.821918
959.8957 1.476467
960.3778 1.529995
960.8599 1.530476
961.3420 1.482582
961.8242 1.324951
962.3063 0.8844760
962.7884 0.9217610
963.2705 2.042667
963.7526 3.089390
964.2347 2.695549
964.7169 1.148563
965.1990 0.4730870
965.6811 1.417629
966.1632 2.100368
966.6453 2.666058
967.1274 2.781429
967.6096 2.088005
968.0917 1.086151
968.5738 0.2819630
969.0559 0.2604940
969.5380 0.4158780
970.0201 4.3427002E-02
970.5023 0.5802270
970.9844 1.695950
971.4665 2.723461
971.9486 3.217564
972.4307 3.256592
972.9128 3.012463
973.3950 2.539303
973.8771 2.099384
974.3592 1.870953
974.8413 1.719879
975.3234 1.521507
975.8055 1.327106
976.2877 1.178406
976.7698 1.135311
977.2519 1.175575
977.7340 1.299030
978.2161 1.402397
978.6982 1.283279
979.1804 1.064812
979.6625 1.242180
980.1446 1.688354
980.6267 1.561615
981.1088 0.7589870
981.5909 0.2210500
982.0731 0.6312980
982.5552 1.456638
983.0373 1.740379
983.5194 1.612537
984.0015 1.628536
984.4836 1.831562
984.9658 1.963257
985.4479 1.930233
985.9300 1.927280
986.4121 2.165066
986.8942 2.527267
987.3763 2.605175
987.8585 2.391163
988.3406 1.815609
988.8227 0.6234740
989.3048 8.0909999E-03
989.7869 0.6472630
990.2690 1.630928
990.7512 1.784584
991.2333 1.184143
991.7154 0.7602730
992.1975 0.5589750
992.6796 0.4377330
993.1617 0.1337550
993.6439 0.2097660
994.1260 1.590572
994.6081 3.176949
995.0902 3.135807
995.5723 1.385448
996.0544 0.4411160
996.5366 1.026291
997.0187 1.555027
997.5008 1.871006
997.9829 1.960915
998.4650 1.679470
998.9471 1.245468
999.4293 0.9343380
999.9114 0.7348330
1000.393 0.7877460
1000.876 1.677444
1001.358 2.277008
1001.840 1.820625
1002.322 1.103294
1002.804 0.7792240
1003.286 0.8014830
1003.768 0.8818860
1004.250 0.9510960
1004.733 1.192329
1005.215 2.261673
1005.697 3.048882
1006.179 2.267723
1006.661 0.9787670
1007.143 0.5109100
1007.625 0.8904230
1008.107 1.643349
1008.589 2.609138
1009.072 3.352547
1009.554 3.546749
1010.036 3.318859
1010.518 2.407722
1011.000 1.188786
1011.482 0.3241960
1011.964 5.2138999E-02
1012.446 6.5482996E-02
1012.929 0.7384990
1013.411 1.349678
1013.893 0.9125370
1014.375 1.174309
1014.857 0.9930800
1015.339 0.5165180
1015.821 0.4200820
1016.303 0.4922680
1016.785 1.057720
1017.268 0.4458620
1017.750 0.6765560
1018.232 1.413094
1018.714 1.720955
1019.196 1.155815
1019.678 0.1422650
1020.160 0.8431890
1020.642 0.5815390
1021.125 4.4273000E-02
1021.607 0.2385410
1022.089 0.3183440
1022.571 0.2251700
1023.053 2.2472000E-02
1023.535 0.1572910
1024.017 0.7988430
1024.499 1.200203
1024.981 1.126484
1025.464 0.8168680
1025.946 0.4166530
1026.428 6.6711001E-02
1026.910 0.3392940
1027.392 1.358765
1027.874 2.043865
1028.356 2.318996
1028.838 2.419537
1029.321 2.374374
1029.803 2.333443
1030.285 2.504997
1030.767 2.770332
1031.249 2.483650
1031.731 1.260880
1032.213 1.092007
1032.695 2.654091
1033.177 3.604248
1033.660 2.740086
1034.142 1.495888
1034.624 1.387112
1035.106 2.219807
1035.588 2.802090
1036.070 3.145657
1036.552 3.170296
1037.034 2.461662
1037.516 2.177944
1037.999 3.197445
1038.481 4.368492
1038.963 4.477371
1039.445 3.610130
1039.927 2.488766
1040.409 0.3942110
1040.891 0.6950380
1041.373 0.1290470
1041.855 0.6207960
1042.338 1.207348
1042.820 1.584114
1043.302 1.673561
1043.784 1.496227
1044.266 1.210732
1044.748 0.5893060
1045.230 0.2531590
1045.712 0.4617610
1046.195 0.6840360
1046.677 0.6647000
1047.159 0.5660590
1047.641 0.6968080
1048.123 0.9860080
1048.605 1.010445
1049.087 0.5432930
1049.569 0.1335530
1050.052 0.4460070
1050.534 0.5943450
1051.016 0.4560170
1051.498 1.736481
1051.980 2.128620
1052.462 1.685677
1052.944 1.258255
1053.426 1.044666
1053.908 0.7372400
1054.391 0.1302600
1054.873 0.4016720
1055.355 0.5850870
1055.837 0.6515050
1056.319 1.020294
1056.801 1.569599
1057.283 1.555553
1057.765 0.4947130
1058.248 0.3973850
1058.730 0.6356810
1059.212 0.7718240
1059.694 1.381924
1060.176 1.863708
1060.658 1.187668
1061.140 0.3306390
1061.622 1.071320
1062.104 0.3325650
1062.587 0.4455220
1063.069 0.8461040
1063.551 1.029758
1064.033 0.9213030
1064.515 0.7539600
1064.997 0.8761060
1065.479 1.201607
1065.961 1.236965
1066.443 0.7123910
1066.926 0.3577580
1067.408 0.6913450
1067.890 1.027836
1068.372 0.8164020
1068.854 0.4820330
1069.336 0.5107990
1069.818 0.8728260
1070.300 1.365391
1070.782 1.990414
1071.265 2.467350
1071.747 2.610096
1072.229 2.649181
1072.711 2.646748
1073.193 2.666046
1073.675 2.825874
1074.157 3.010216
1074.639 3.046066
1075.122 2.959679
1075.604 2.772385
1076.086 2.239021
1076.568 1.807014
1077.050 1.771805
1077.532 1.912224
1078.014 2.099899
1078.496 2.309151
1078.979 2.389374
1079.461 2.268181
1079.943 2.204483
1080.425 2.192627
1080.907 2.410484
1081.389 3.383781
1081.871 4.310822
1082.353 4.315170
1082.835 3.689949
1083.318 3.119545
1083.800 2.764381
1084.282 2.605820
1084.764 2.690239
1085.246 2.933609
1085.728 3.421295
1086.210 3.928680
1086.692 4.300179
1087.175 4.534180
1087.657 4.650108
1088.139 4.653976
1088.621 4.562683
1089.103 4.220116
1089.585 4.008636
1090.067 4.103668
1090.549 4.393539
1091.031 4.842644
1091.514 5.390625
1091.996 6.011841
1092.478 6.674194
1092.960 7.209755
1093.442 7.632164
1093.924 7.780487
1094.406 7.383499
1094.888 6.925095
1095.370 6.659363
1095.853 6.561188
1096.335 6.671196
1096.817 6.912239
1097.299 6.983253
1097.781 6.911713
1098.263 6.386551
1098.745 4.386436
1099.227 2.998756
1099.709 3.839912
1100.192 5.358353
1100.674 5.935608
1101.156 5.683311
1101.638 5.522408
1102.120 5.761612
1102.602 5.566643
1103.084 4.180840
1103.566 3.037926
1104.049 2.817085
1104.531 2.965187
1105.013 3.225182
1105.495 3.413544
1105.977 3.069939
1106.459 1.983109
1106.941 1.435783
1107.423 2.074303
1107.906 2.657288
1108.388 2.905846
1108.870 3.006538
1109.352 3.005920
1109.834 2.916267
1110.316 2.684990
1110.798 2.291992
1111.280 2.191872
1111.762 2.600029
1112.245 3.030235
1112.727 3.556870
1113.209 3.925400
1113.691 3.926300
1114.173 3.741608
1114.655 3.499985
1115.137 3.266228
1115.619 3.512222
1116.102 4.687500
1116.584 5.404533
1117.066 5.448006
1117.548 5.311905
1118.030 4.945038
1118.512 4.699989
1118.994 4.903145
1119.476 5.474731
1119.958 6.289291
1120.441 7.536552
1120.923 8.286285
1121.405 8.284988
1121.887 8.331253
1122.369 8.634491
1122.851 9.016205
1123.333 9.321663
1123.815 9.642357
1124.297 10.22620
1124.780 11.11686
1125.262 11.61489
1125.744 11.51489
1126.226 11.81676
1126.708 12.81296
1127.190 13.79672
1127.672 14.33168
1128.154 14.78451
1128.636 15.78262
1129.119 16.08254
1129.601 17.66261
1130.083 17.08602
1130.565 17.03359
1131.047 17.69285
1131.529 18.65222
1132.011 19.80643
1132.493 20.74752
1132.976 21.03501
1133.458 20.85056
1133.940 20.62710
1134.422 20.38708
1134.904 20.52106
1135.386 21.01527
1135.868 21.19906
1136.350 20.90835
1136.833 20.97390
1137.315 22.04283
1137.797 23.40967
1138.279 23.79762
1138.761 23.51736
1139.243 23.53165
1139.725 23.85300
1140.207 24.77373
1140.689 26.15458
1141.172 26.76877
1141.654 26.05328
1142.136 25.11722
1142.618 25.18149
1143.100 25.73134
1143.582 25.90204
1144.064 25.91526
1144.546 26.16078
1145.029 26.61637
1145.511 27.29485
1145.993 28.12508
1146.475 28.62855
1146.957 28.42819
1147.439 27.93038
1147.921 27.27087
1148.403 26.69833
1148.885 26.38268
1149.368 26.51612
1149.850 27.70695
1150.332 29.59470
1150.814 30.57384
1151.296 29.90462
1151.778 29.13686
1152.260 29.27131
1152.742 29.62661
1153.224 29.96690
1153.707 30.01215
1154.189 29.20660
1154.671 27.93905
1155.153 27.06142
1155.635 26.73964
1156.117 26.66432
1156.599 26.77404
1157.081 27.07053
1157.563 27.75706
1158.046 28.43535
1158.528 29.04845
1159.010 29.30848
1159.492 28.60466
1159.974 27.14912
1160.456 26.61333
1160.938 28.21971
1161.420 28.64351
1161.903 26.82705
1162.385 25.08428
1162.867 23.89230
1163.349 23.21056
1163.831 23.34470
1164.313 23.81144
1164.795 23.31837
1165.277 21.65094
1165.760 20.98059
1166.242 21.79013
1166.724 22.02337
1167.206 21.22182
1167.688 20.23363
1168.170 19.40268
1168.652 18.89124
1169.134 19.02717
1169.616 19.56291
1170.099 19.24025
1170.581 18.04606
1171.063 16.73808
1171.545 15.35796
1172.027 14.82822
1172.509 15.43969
1172.991 15.89008
1173.473 15.14851
1173.956 15.04285
1174.438 13.46377
1174.920 13.48111
1175.402 12.65446
1175.884 11.38052
1176.366 11.45781
1176.848 12.77492
1177.330 13.22602
1177.813 11.95485
1178.295 10.58395
1178.777 10.74092
1179.259 11.26520
1179.741 10.68487
1180.223 9.570442
1180.705 8.516586
1181.187 7.675919
1181.669 7.346306
1182.151 7.464218
1182.634 7.464218
1183.116 7.118179
1183.598 6.512856
1184.080 4.985092
1184.562 4.045570
1185.044 5.620026
1185.526 7.534775
1186.008 7.205940
1186.490 5.424614
1186.973 4.563896
1187.455 5.076920
1187.937 5.249985
1188.419 4.385498
1188.901 3.694069
1189.383 3.596581
1189.865 3.508957
1190.347 3.056198
1190.830 2.520096
1191.312 2.123978
1191.794 1.913544
1192.276 2.161934
1192.758 3.220680
1193.240 3.461159
1193.722 2.544395
1194.204 1.861000
1194.687 1.765823
1195.169 1.841469
1195.651 1.934502
1196.133 1.812965
1196.615 0.9509050
1197.097 1.001244
1197.579 0.9324260
1198.061 0.5439220
1198.543 1.093086
1199.026 1.052032
1199.508 1.117706
1199.990 1.503838
1200.472 1.592880
1200.954 0.8051530
1201.436 0.1846240
1201.918 0.3212360
1202.400 7.6766998E-02
1202.883 0.6043470
1203.365 1.052834
1203.847 0.8273390
1204.329 0.1019670
1204.811 0.1517110
1205.293 0.2222370
1205.775 0.3616640
1206.257 0.6912310
1206.740 1.658768
1207.222 1.598526
1207.704 1.044472
1208.186 2.7915999E-02
1208.668 0.8594890
1209.150 0.6771390
1209.632 0.4251020
1210.114 1.338158
1210.596 1.955444
1211.078 1.880768
1211.561 0.5930330
1212.043 0.7413480
1212.525 2.236832
1213.007 3.166283
1213.489 2.858711
1213.971 1.879288
1214.453 1.005875
1214.935 0.2474520
1215.417 0.2323380
1215.900 0.5211870
1216.382 3.1082001E-02
1216.864 1.603287
1217.346 2.420036
1217.828 1.670982
1218.310 0.6177370
1218.792 0.1521990
1219.274 0.2541580
1219.757 1.190735
1220.239 0.6764450
1220.721 2.355507
1221.203 0.9209670
1221.685 0.7013240
1222.167 1.733238
1222.649 2.429535
1223.131 2.241737
1223.614 1.722458
1224.096 1.168823
1224.578 0.8417820
1225.060 1.145035
1225.542 1.732071
1226.024 2.484947
1226.506 3.042717
1226.988 2.603180
1227.470 1.527161
1227.953 1.079269
1228.435 1.739006
1228.917 2.387268
1229.399 2.511261
1229.881 2.737259
1230.363 3.466415
1230.845 4.137184
1231.327 4.347916
1231.810 4.374580
1232.292 4.647133
1232.774 5.029549
1233.256 4.892479
1233.738 3.970169
1234.220 3.714310
1234.702 4.358078
1235.184 4.933144
1235.667 5.295311
1236.149 5.455978
1236.631 5.425751
1237.113 5.119843
1237.595 4.287476
1238.077 3.365250
1238.559 3.995720
1239.041 5.741829
1239.523 6.208473
1240.005 5.547256
1240.488 5.191429
1240.970 5.384613
1241.452 5.428741
1241.934 4.987694
1242.416 4.600044
1242.898 4.802742
1243.380 5.227715
1243.862 5.331596
1244.344 5.608604
1244.827 6.967865
1245.309 8.412529
1245.791 8.185143
1246.273 6.149391
1246.755 4.444237
1247.237 3.896858
1247.719 3.546707
1248.201 3.173447
1248.684 2.817444
1249.166 2.373619
1249.648 2.193947
1250.130 2.997803
1250.612 3.714622
1251.094 2.784218
1251.576 0.8130570
1252.058 0.2943120
1252.541 1.475410
1253.023 2.191788
1253.505 2.353630
1253.987 1.809639
1254.469 0.5405650
1254.951 0.1185530
1255.433 0.6464840
1255.915 2.130386
1256.397 3.786972
1256.880 4.951515
1257.362 3.798058
1257.844 1.638214
1258.326 1.130524
1258.808 1.892647
1259.290 2.750298
1259.772 3.339783
1260.254 3.578232
1260.737 3.480064
1261.219 2.828796
1261.701 0.5199430
1262.183 1.059334
1262.665 2.6161000E-02
1263.147 1.518715
1263.629 1.936661
1264.111 1.647919
1264.594 1.097839
1265.076 0.4202270
1265.558 0.1935650
1266.040 0.5303960
1266.522 0.9800720
1267.004 1.732727
1267.486 1.811752
1267.968 0.8070980
1268.450 0.2495420
1268.932 0.8125380
1269.415 1.848869
1269.897 2.379860
1270.379 2.282166
1270.861 1.964096
1271.343 1.537888
1271.825 1.390228
1272.307 1.412285
1272.789 1.359337
1273.271 1.177971
1273.754 0.9537050
1274.236 0.2715680
1274.718 0.3517150
1275.200 0.5102540
1275.682 0.7333220
1276.164 1.659752
1276.646 2.558296
1277.128 2.650177
1277.611 2.417168
1278.093 1.896927
1278.575 1.168518
1279.057 0.7966770
1279.539 0.8576810
1280.021 0.7535930
1280.503 0.5405040
1280.985 0.3199460
1281.468 5.1799999E-03
1281.950 1.2390000E-02
1282.432 0.4559630
1282.914 0.9547420
1283.396 1.027466
1283.878 0.7019810
1284.360 0.6609500
1284.842 0.5801700
1285.324 0.0000000E+00
