#Shining_header
#Data type:raman_database
#CAS:Not entered
#Material scientific name:silicon oxide
#Manufacturer:Not entered
#Laser model:Not entered
#Spectrometer model:Not entered
#Testing unit:Not entered
#Test time:Not entered
#Other experimental details:Not entered
#Shining_data
-159.738 7800
-158.437 8066
-157.137 8562
-155.836 8920
-154.536 9444
-153.237 9929
-151.937 10726
-150.638 11354
-149.339 12291
-148.040 13039
-146.741 13822
-145.443 15040
-144.144 15680
-142.846 15888
-141.549 16310
-140.251 15963
-138.954 14710
-137.657 14208
-136.360 13510
-135.063 12527
-133.766 12032
-132.470 11666
-131.174 11824
-129.878 11467
-128.583 11625
-127.287 11959
-125.992 12405
-124.697 12801
-123.402 13882
-122.108 14596
-120.814 15623
-119.519 17081
-118.226 18493
-116.932 20263
-115.638 22379
-114.345 24480
-113.052 26343
-111.759 27884
-110.467 28512
-109.174 28645
-107.882 27959
-106.590 26957
-105.299 25178
-104.007 23775
-102.716 21661
-101.425 19889
-100.134 18107
-98.843 16742
-97.553 15452
-96.263 14588
-94.973 13634
-93.683 12796
-92.393 12456
-91.104 11952
-89.815 11699
-88.526 11995
-87.237 12547
-85.949 13022
-84.660 13127
-83.372 13030
-82.084 13162
-80.797 12489
-79.509 12219
-78.222 12242
-76.935 12588
-75.648 12612
-74.362 12753
-73.075 13328
-71.789 14946
-70.503 17068
-69.218 19839
-67.932 22403
-66.647 23566
-65.362 23002
-64.077 21031
-62.792 18539
-61.508 16382
-60.223 14644
-58.939 13354
-57.656 12041
-56.372 11334
-55.089 10611
-53.805 10359
-52.522 10049
-51.240 9681
-49.957 9748
-48.675 9541
-47.393 9695
-46.111 9644
-44.829 9261
-43.547 8444
-42.266 8100
-40.985 7562
-39.704 7342
-38.424 7320
-37.143 7252
-35.863 7276
-34.583 7401
-33.303 7839
-32.023 8348
-30.744 8871
-29.465 9984
-28.186 10679
-26.907 11115
-25.628 10632
-24.350 9795
-23.072 9131
-21.794 8461
-20.516 7975
-19.239 7594
-17.961 7241
-16.684 6679
-15.407 6416
-14.131 6116
-12.854 5784
-11.578 5649
-10.302 5690
-9.026 6058
-7.750 7677
-6.475 16346
-5.200 59961
-3.924 196605
-2.650 196605
-1.375 196605
-0.101 196605
1.174 196605
2.448 62874
3.721 7248
4.995 3130
6.268 2708
7.542 2729
8.815 3229
10.087 4189
11.360 4887
12.632 5306
13.904 5808
15.176 6400
16.448 6962
17.720 7552
18.991 8174
20.262 8671
21.533 9171
22.804 10038
24.074 11139
25.345 11959
26.615 12324
27.885 12143
29.154 11281
30.424 10246
31.693 9244
32.962 8740
34.231 8773
35.500 8171
36.768 8347
38.037 8474
39.305 8664
40.573 8785
41.840 9481
43.108 10347
44.375 11334
45.642 11654
46.909 11815
48.175 11909
49.442 11780
50.708 11895
51.974 12310
53.240 12924
54.506 13488
55.771 14150
57.036 15178
58.301 16840
59.566 18770
60.831 21077
62.095 23624
63.360 27504
64.624 30475
65.887 32591
67.151 32105
68.415 29148
69.678 25275
70.941 21829
72.204 19256
73.466 18039
74.729 17647
75.991 17235
77.253 17289
78.515 17387
79.776 17753
81.038 18135
82.299 18991
83.560 18978
84.821 19023
86.082 18347
87.342 18033
88.602 17581
89.862 17560
91.122 17909
92.382 18418
93.641 19485
94.900 21202
96.159 22113
97.418 24373
98.677 26488
99.935 29543
101.194 32009
102.452 34965
103.709 39201
104.967 42004
106.225 44673
107.482 46821
108.739 47993
109.996 48313
111.252 46979
112.509 44864
113.765 42425
115.021 38727
116.277 35438
117.533 32666
118.788 29659
120.044 27788
121.299 25369
122.554 23849
123.808 22671
125.063 21826
126.317 21000
127.571 20725
128.825 20355
130.079 20543
131.332 20793
132.586 20958
133.839 22029
135.092 23176
136.345 24975
137.597 27029
138.849 28770
140.102 30055
141.354 30889
142.605 30708
143.857 29960
145.108 28738
146.359 26525
147.610 25489
148.861 23354
150.112 21880
151.362 20562
152.613 19447
153.863 18116
155.112 17144
156.362 16388
157.611 15393
158.861 14927
160.110 14328
161.359 13891
162.607 13806
163.856 13793
165.104 13537
166.352 13597
167.600 13547
168.848 13884
170.095 14298
171.343 14019
172.590 14297
173.837 14317
175.083 13986
176.330 13686
177.576 13364
178.823 13177
180.068 12737
181.314 12648
182.560 12630
183.805 12730
185.051 12740
186.296 12985
187.540 12910
188.785 13308
190.029 13285
191.274 13472
192.518 13829
193.762 13822
195.005 14007
196.249 14356
197.492 15130
198.735 16008
199.978 16952
201.221 17931
202.464 19264
203.706 20510
204.948 22050
206.190 23221
207.432 24291
208.673 25452
209.915 25691
211.156 25519
212.397 24921
213.638 23699
214.879 22125
216.119 20593
217.359 18473
218.599 17060
219.839 15597
221.079 14351
222.319 13352
223.558 12274
224.797 11328
226.036 11166
227.275 10427
228.513 10076
229.752 9713
230.990 9083
232.228 9112
233.466 9087
234.704 8717
235.941 8554
237.178 8621
238.415 8514
239.652 8481
240.889 8832
242.126 8711
243.362 8930
244.598 9208
245.834 9393
247.070 9666
248.306 9795
249.541 10159
250.776 10338
252.011 10398
253.246 10690
254.481 10841
255.715 11062
256.950 11467
258.184 11779
259.418 12376
260.651 12800
261.885 13315
263.118 14537
264.351 15063
265.584 16017
266.817 17077
268.050 18614
269.282 19858
270.515 22129
271.747 23645
272.979 26073
274.210 28340
275.442 30601
276.673 32609
277.904 33937
279.135 34614
280.366 34323
281.597 32850
282.827 31596
284.058 30728
285.288 30459
286.518 30545
287.747 31648
288.977 33522
290.206 36060
291.435 38947
292.664 41533
293.893 45027
295.122 47604
296.350 50721
297.578 53869
298.806 56345
300.034 59326
301.262 60203
302.489 62375
303.717 63482
304.944 65285
306.171 64015
307.398 64085
308.624 62027
309.851 58549
311.077 55120
312.303 52295
313.529 49005
314.755 47173
315.980 44912
317.206 42348
318.431 40100
319.656 37834
320.881 36412
322.105 35102
323.330 34095
324.554 33567
325.778 34182
327.002 33878
328.226 34714
329.449 35225
330.673 35429
331.896 35818
333.119 35994
334.342 36166
335.564 37235
336.787 38512
338.009 40818
339.231 42930
340.453 45430
341.675 49150
342.896 53591
344.118 58393
345.339 63904
346.560 69542
347.781 74386
349.002 78339
350.222 82690
351.442 82495
352.663 82213
353.883 80827
355.102 79701
356.322 76564
357.541 73258
358.761 70529
359.980 68066
361.199 64752
362.417 62383
363.636 58828
364.854 55207
366.073 52176
367.291 50291
368.508 47993
369.726 46021
370.944 44532
372.161 43460
373.378 41601
374.595 40455
375.812 37630
377.029 35546
378.245 33333
379.461 31434
380.677 29694
381.893 28502
383.109 27597
384.325 26241
385.540 25545
386.755 24884
387.970 24463
389.185 24078
390.400 24289
391.614 24074
392.829 23688
394.043 23351
395.257 22280
396.471 21380
397.684 20994
398.898 20476
400.111 20473
401.324 20903
402.537 21374
403.750 22286
404.963 23185
406.175 23600
407.387 23882
408.599 23508
409.811 22782
411.023 22090
412.235 20514
413.446 19249
414.657 18114
415.868 17579
417.079 16958
418.290 16857
419.500 16918
420.711 17099
421.921 18001
423.131 19659
424.341 21530
425.550 24424
426.760 28533
427.969 33297
429.178 39849
430.387 46331
431.596 52994
432.805 58368
434.013 59459
435.222 57132
436.430 51647
437.638 44945
438.845 38666
440.053 33611
441.261 30025
442.468 26825
443.675 24170
444.882 21980
446.089 20432
447.295 18883
448.502 17582
449.708 16644
450.914 15978
452.120 15035
453.326 14422
454.531 13640
455.737 13218
456.942 12715
458.147 12209
459.352 11819
460.556 11211
461.761 10911
462.965 10632
464.170 10219
465.374 9665
466.578 9883
467.781 9404
468.985 9222
470.188 8922
471.391 8910
472.594 8760
473.797 8624
475.000 8444
476.203 8372
477.405 8202
478.607 8090
479.809 7778
481.011 7756
482.213 7774
483.414 7622
484.616 7479
485.817 7356
487.018 7228
488.219 7211
489.419 7031
490.620 6910
491.820 6894
493.020 6937
494.220 6888
495.420 7074
496.620 6765
497.820 6563
499.019 6694
500.218 6533
501.417 6401
502.616 6260
503.815 6111
505.013 6250
506.212 6158
507.410 6307
508.608 6119
509.806 6141
511.003 6055
512.201 6035
513.398 5975
514.595 6089
515.792 5975
516.989 5823
518.186 6137
519.383 5956
520.579 5972
521.775 5900
522.971 5767
524.167 5816
525.363 5735
526.558 5675
527.754 5868
528.949 5758
530.144 5740
531.339 5690
532.534 5656
533.728 5694
534.923 5831
536.117 5751
537.311 6022
538.505 6037
539.699 6304
540.892 6303
542.086 6227
543.279 5905
544.472 5914
545.665 5691
546.858 5626
548.050 5516
549.243 5391
550.435 5422
551.627 5524
552.819 5504
554.011 5470
555.203 5467
556.394 5566
557.586 5664
558.777 5837
559.968 5990
561.159 5716
562.349 5855
563.540 5705
564.730 5709
565.920 5398
567.110 5400
568.300 5288
569.490 5307
570.679 5181
571.869 5260
573.058 5159
574.247 5150
575.436 5151
576.625 5105
577.813 5055
579.002 5136
580.190 5023
581.378 5215
582.566 5124
583.754 5239
584.941 5009
586.129 4956
587.316 5044
588.503 5044
589.690 5109
590.877 5034
592.064 4946
593.250 5058
594.437 4894
595.623 4998
596.809 4992
597.995 5121
599.180 4959
600.366 4948
601.551 5073
602.737 5021
603.922 5007
605.107 5030
606.291 5074
607.476 5076
608.660 5007
609.845 5054
611.029 4898
612.213 5027
613.397 4945
614.580 4936
615.764 5108
616.947 5067
618.130 4852
619.313 4985
620.496 4941
621.679 4959
622.862 4974
624.044 4994
625.226 4988
626.408 4880
627.590 5057
628.772 5049
629.954 4863
631.135 4952
632.316 4783
633.497 5019
634.678 4941
635.859 4965
637.040 4852
638.220 5013
639.401 4900
640.581 4766
641.761 4901
642.941 4878
644.121 4904
645.300 4976
646.480 4853
647.659 4834
648.838 4914
650.017 4917
651.196 5010
652.375 4915
653.553 4832
654.731 4920
655.910 4908
657.088 4818
658.266 4963
659.443 4823
660.621 4837
661.798 4955
662.976 5018
664.153 4960
665.330 4930
666.507 4884
667.683 5023
668.860 5026
670.036 4969
671.212 5032
672.388 4966
673.564 5009
674.740 5189
675.915 5167
677.091 5081
678.266 5150
679.441 5166
680.616 5198
681.791 5260
682.966 5223
684.140 5104
685.315 5306
686.489 5095
687.663 4992
688.837 5120
690.011 5097
691.184 5134
692.358 5065
693.531 4922
694.704 5036
695.877 5117
697.050 4908
698.223 5148
699.395 5230
700.567 4988
701.740 5114
702.912 5016
704.084 5074
705.255 5073
706.427 5307
707.599 5229
708.770 5177
709.941 5538
711.112 5416
712.283 5537
713.454 5601
714.624 5640
715.795 5533
716.965 5516
718.135 5536
719.305 5394
720.475 5315
721.645 5377
722.814 5253
723.984 5373
725.153 5386
726.322 5188
727.491 5207
728.660 5161
729.828 5325
730.997 5276
732.165 5319
733.333 5231
734.501 5360
735.669 5405
736.837 5413
738.004 5408
739.172 5408
740.339 5305
741.506 5386
742.673 5434
743.840 5404
745.007 5511
746.173 5498
747.340 5593
748.506 5687
749.672 5562
750.838 5625
752.004 5602
753.170 5785
754.335 5812
755.501 6002
756.666 6043
757.831 6129
758.996 6370
760.161 6469
761.325 6642
762.490 6845
763.654 7179
764.818 7545
765.982 8065
767.146 8542
768.310 9485
769.474 10144
770.637 11549
771.800 12211
772.964 12977
774.127 13580
775.290 13507
776.452 13099
777.615 12306
778.777 11819
779.940 11048
781.102 10596
782.264 10330
783.426 9802
784.587 9434
785.749 9125
786.910 9100
788.072 8955
789.233 8589
790.394 8323
791.555 8394
792.715 8066
793.876 7949
795.036 7747
796.197 7446
797.357 7504
798.517 7289
799.677 7261
800.836 7407
801.996 7375
803.155 7554
804.314 7664
805.474 7735
806.633 7845
807.791 7817
808.950 7547
810.109 7332
811.267 7267
812.425 6890
813.583 6628
814.741 6535
815.899 6281
817.057 6365
818.214 6261
819.372 6066
820.529 5951
821.686 5983
822.843 5874
824.000 5713
825.157 5807
826.313 5732
827.470 5787
828.626 5663
829.782 5656
830.938 5531
832.094 5676
833.250 5719
834.405 5609
835.561 5712
836.716 5636
837.871 5662
839.026 5721
840.181 5570
841.335 5558
842.490 5660
843.644 5587
844.799 5652
845.953 5520
847.107 5781
848.261 5655
849.414 5624
850.568 5658
851.721 5693
852.875 5569
854.028 5655
855.181 5701
856.334 5692
857.487 5682
858.639 5697
859.792 5649
860.944 5660
862.096 5805
863.248 5683
864.400 5644
865.552 5871
866.703 5820
867.855 5781
869.006 5820
870.157 5665
871.309 5743
872.459 5765
873.610 5775
874.761 5844
875.911 5842
877.062 5917
878.212 5650
879.362 5755
880.512 5647
881.662 5714
882.812 5788
883.961 5707
885.111 5728
886.260 5832
887.409 5970
888.558 5897
889.707 5853
890.855 5743
892.004 5776
893.152 5787
894.301 5809
895.449 5767
896.597 5863
897.745 5675
898.893 5913
900.040 5817
901.188 5846
902.335 5824
903.482 5883
904.629 5770
905.776 5767
906.923 5763
908.070 5696
909.216 5513
910.363 5618
911.509 5509
912.655 5631
913.801 5519
914.947 5482
916.092 5446
917.238 5438
918.383 5468
919.529 5346
920.674 5409
921.819 5254
922.964 5272
924.109 5313
925.253 5313
926.398 5236
927.542 5197
928.686 5307
929.830 5162
930.974 5343
932.118 5173
933.262 5087
934.405 5189
935.549 5057
936.692 5210
937.835 5044
938.978 4989
940.121 5106
941.264 5083
942.406 5092
943.549 5073
944.691 4902
945.833 5108
946.975 5012
948.117 4977
949.259 4833
950.401 5049
951.542 4887
952.684 4935
953.825 4920
954.966 4935
956.107 4952
957.248 4978
958.389 4856
959.529 4763
960.670 4929
961.810 4825
962.950 4882
964.090 4874
965.230 4887
966.370 4865
967.510 4920
968.649 4753
969.789 4793
970.928 4759
972.067 4930
973.206 4794
974.345 4874
975.484 4680
976.622 4870
977.761 4727
978.899 4652
980.037 4775
981.176 4930
982.313 4930
983.451 4831
984.589 4801
985.727 4850
986.864 4864
988.001 4765
989.138 4858
990.276 4817
991.412 4829
992.549 4792
993.686 4919
994.822 4756
995.959 4955
997.095 4892
998.231 4879
999.367 4899
1000.503 4877
1001.639 4937
1002.774 4725
1003.910 4906
1005.045 4822
1006.180 4861
1007.315 4920
1008.450 4946
1009.585 4968
1010.720 4958
1011.854 4861
1012.989 4966
1014.123 4965
1015.257 4906
1016.391 5063
1017.525 5043
1018.659 4926
1019.793 4961
1020.926 4929
1022.060 5016
1023.193 5007
1024.326 5077
1025.459 4936
1026.592 5044
1027.725 5160
1028.858 5075
1029.990 5210
1031.122 5060
1032.255 5221
1033.387 5039
1034.519 5327
1035.651 5212
1036.782 5255
1037.914 5254
1039.046 5341
1040.177 5392
1041.308 5263
1042.439 5355
1043.570 5418
1044.701 5496
1045.832 5610
1046.962 5604
1048.093 5560
1049.223 5587
1050.353 5559
1051.483 5547
1052.613 5432
1053.743 5635
1054.873 5551
1056.003 5856
1057.132 5803
1058.261 5577
1059.391 5736
1060.520 5737
1061.649 5919
1062.777 5925
1063.906 5854
1065.035 6102
1066.163 6132
1067.291 6133
1068.420 6518
1069.548 6469
1070.676 6784
1071.803 6802
1072.931 7145
1074.059 7431
1075.186 7405
1076.313 7553
1077.441 7580
1078.568 7397
1079.695 7408
1080.822 7324
1081.948 7144
1083.075 6970
1084.201 6651
1085.328 6531
1086.454 6378
1087.580 6403
1088.706 6054
1089.832 5973
1090.957 6046
1092.083 5926
1093.208 5932
1094.334 5978
1095.459 5980
1096.584 5731
1097.709 5698
1098.834 5748
1099.958 5746
1101.083 5767
1102.208 5604
1103.332 5709
1104.456 5759
1105.580 5640
1106.704 5674
1107.828 5669
1108.952 5688
1110.075 5791
1111.199 5643
1112.322 5689
1113.445 5807
1114.569 5604
1115.692 5678
1116.814 5654
1117.937 5563
1119.060 5744
1120.182 5616
1121.305 5682
1122.427 5673
1123.549 5627
1124.671 5697
1125.793 5625
1126.915 5795
1128.036 5671
1129.158 5729
1130.279 5797
1131.401 5650
1132.522 5678
1133.643 5712
1134.764 5669
1135.884 5759
1137.005 5600
1138.126 5672
1139.246 5631
1140.366 5742
1141.487 5809
1142.607 5668
1143.727 5504
1144.847 5763
1145.966 5707
1147.086 5633
1148.205 5761
1149.325 5701
1150.444 5830
1151.563 5767
1152.682 5625
1153.801 5792
1154.920 5733
1156.038 5759
1157.157 5742
1158.275 5692
1159.393 5794
1160.512 5800
1161.630 5861
1162.748 5810
1163.865 5806
1164.983 5849
1166.101 5855
1167.218 5849
1168.335 5940
1169.453 5949
1170.570 6010
1171.687 5885
1172.803 5977
1173.920 5921
1175.037 5980
1176.153 6106
1177.270 6075
1178.386 6034
1179.502 6192
1180.618 6131
1181.734 5890
1182.850 6001
1183.965 5948
1185.081 5964
1186.196 6208
1187.312 6144
1188.427 6248
1189.542 6182
1190.657 6268
1191.772 6101
1192.886 5974
1194.001 6199
1195.116 6075
1196.230 6118
1197.344 6075
1198.458 6209
1199.572 6203
1200.686 6158
1201.800 6172
1202.914 6427
1204.027 6244
1205.141 6317
1206.254 6392
1207.367 6277
1208.480 6503
1209.593 6438
1210.706 6474
1211.819 6685
1212.931 6724
1214.044 6637
1215.156 6873
1216.269 6834
1217.381 6973
1218.493 7059
1219.605 7245
1220.717 7028
1221.828 6882
1222.940 6890
1224.051 6777
1225.163 6800
1226.274 6685
1227.385 6702
1228.496 6737
1229.607 6618
1230.718 6487
1231.828 6472
1232.939 6485
1234.049 6461
1235.160 6432
1236.270 6420
1237.380 6266
1238.490 6269
1239.600 6422
1240.709 6228
1241.819 6157
1242.929 6275
1244.038 6348
1245.147 6240
1246.256 6106
1247.365 6235
1248.474 6183
1249.583 6203
1250.692 6278
1251.801 6248
1252.909 6110
1254.017 6019
1255.126 6106
1256.234 5980
1257.342 5916
1258.450 6121
1259.558 5877
1260.665 5859
1261.773 5920
1262.880 5968
1263.988 5880
1265.095 6000
1266.202 5754
1267.309 5898
1268.416 6007
1269.523 5937
1270.629 5815
1271.736 5818
1272.842 5888
1273.949 5990
1275.055 5836
1276.161 5907
1277.267 5856
1278.373 5817
1279.479 5908
1280.585 5711
1281.690 5902
1282.796 5871
1283.901 5811
1285.006 5745
1286.111 5810
1287.216 5942
1288.321 5860
1289.426 5720
1290.531 5850
1291.635 5892
1292.740 5859
1293.844 5889
1294.948 5792
1296.052 5889
1297.156 6017
1298.260 5788
1299.364 5875
1300.468 5946
1301.571 5984
1302.675 5781
1303.778 5905
1304.881 5984
1305.984 5916
1307.087 5928
1308.190 5977
1309.293 6051
1310.396 5814
1311.498 5864
1312.601 5819
1313.703 5914
1314.805 5973
1315.907 5858
1317.009 6021
1318.111 5903
1319.213 5885
1320.315 5921
1321.416 5962
1322.518 5907
1323.619 6014
1324.721 6082
1325.822 5978
1326.923 6012
1328.024 5904
1329.125 5938
1330.225 6061
1331.326 5929
1332.426 6016
1333.527 5993
1334.627 6137
1335.727 6149
1336.827 5966
1337.927 6099
1339.027 6094
1340.127 6070
1341.226 6275
1342.326 6040
1343.425 5949
1344.525 6022
1345.624 6160
1346.723 6143
1347.822 6104
1348.921 6086
1350.020 6112
1351.118 6201
1352.217 6042
1353.315 6341
1354.414 6069
1355.512 6142
1356.610 6077
1357.708 6100
1358.806 6281
1359.904 6174
1361.001 6367
1362.099 6157
1363.196 6214
1364.294 6279
1365.391 6169
1366.488 6103
1367.585 6320
1368.682 6169
1369.779 6287
1370.876 6336
1371.973 6117
1373.069 6253
1374.166 6178
1375.262 6094
1376.358 6241
1377.454 6189
1378.550 6256
1379.646 6357
1380.742 6252
1381.838 6402
1382.933 6396
1384.029 6339
1385.124 6188
1386.219 6276
1387.314 6196
1388.409 6359
1389.504 6179
1390.599 6376
1391.694 6222
1392.789 6251
1393.883 6357
1394.978 6373
1396.072 6356
1397.166 6503
1398.260 6408
1399.354 6302
1400.448 6068
1401.542 6370
1402.636 6336
1403.729 6453
1404.823 6461
1405.916 6454
1407.009 6417
1408.102 6421
1409.196 6405
1410.288 6278
1411.381 6276
1412.474 6318
1413.567 6427
1414.659 6431
1415.752 6370
1416.844 6519
1417.936 6447
1419.028 6519
1420.121 6447
1421.212 6540
1422.304 6565
1423.396 6445
1424.488 6383
loop_
_rod_maintainer_comment.id
_rod_maintainer_comment.author
_rod_maintainer_comment.date
_rod_maintainer_comment.text
#1 mkanzaki 2019-10-14T13:26:36+0300
;I added polymorph name to title as this info does not appear when
 searched.
;
