#Shining_header
#Data type:raman_database
#CAS:Not entered
#Material scientific name:zinc silicon oxide
#Manufacturer:Not entered
#Laser model:Not entered
#Spectrometer model:Not entered
#Testing unit:Not entered
#Test time:Not entered
#Other experimental details:Not entered
#Shining_data
51.097 268
52.357 269
53.616 266
54.876 266
56.135 266
57.394 266
58.652 267
59.911 273
61.170 269
62.428 269
63.686 274
64.944 292
66.202 318
67.459 317
68.717 294
69.974 283
71.231 286
72.488 282
73.745 279
75.001 292
76.258 298
77.514 313
78.770 339
80.026 354
81.282 349
82.538 339
83.793 374
85.048 403
86.303 402
87.558 369
88.813 341
90.068 322
91.322 313
92.576 314
93.830 311
95.084 324
96.338 323
97.592 340
98.845 364
100.098 414
101.351 518
102.604 665
103.857 868
105.110 1153
106.362 1726
107.614 1883
108.866 1378
110.118 833
111.370 552
112.622 454
113.873 408
115.124 391
116.375 394
117.626 401
118.877 396
120.128 381
121.378 390
122.628 426
123.878 485
125.128 558
126.378 562
127.628 558
128.877 536
130.126 487
131.375 426
132.624 377
133.873 344
135.121 340
136.370 332
137.618 334
138.866 322
140.114 320
141.362 323
142.609 330
143.857 332
145.104 350
146.351 361
147.598 398
148.845 413
150.091 425
151.338 410
152.584 409
153.830 384
155.076 354
156.321 360
157.567 352
158.812 348
160.058 357
161.303 366
162.548 387
163.792 430
165.037 514
166.281 559
167.526 551
168.770 501
170.013 432
171.257 388
172.501 363
173.744 337
174.987 345
176.230 337
177.473 343
178.716 356
179.959 357
181.201 358
182.443 357
183.685 347
184.927 332
186.169 328
187.410 323
188.652 309
189.893 314
191.134 312
192.375 309
193.616 314
194.856 316
196.097 318
197.337 313
198.577 306
199.817 300
201.057 304
202.296 301
203.536 302
204.775 308
206.014 304
207.253 312
208.492 300
209.730 308
210.968 311
212.207 313
213.445 312
214.683 316
215.920 320
217.158 323
218.395 342
219.633 362
220.870 391
222.107 422
223.343 426
224.580 403
225.816 367
227.053 343
228.289 323
229.525 318
230.760 317
231.996 323
233.231 319
234.467 319
235.702 313
236.937 314
238.171 328
239.406 332
240.640 349
241.875 362
243.109 368
244.343 352
245.576 346
246.810 334
248.043 323
249.277 323
250.510 326
251.743 328
252.975 317
254.208 317
255.440 327
256.673 325
257.905 329
259.137 332
260.368 340
261.600 347
262.832 355
264.063 354
265.294 367
266.525 372
267.756 393
268.986 415
270.217 444
271.447 496
272.677 555
273.907 649
275.137 737
276.366 764
277.596 749
278.825 669
280.054 574
281.283 490
282.512 434
283.741 405
284.969 382
286.197 360
287.426 359
288.654 340
289.881 332
291.109 336
292.336 316
293.564 321
294.791 318
296.018 319
297.245 312
298.471 310
299.698 310
300.924 307
302.150 318
303.376 311
304.602 330
305.828 321
307.053 328
308.279 334
309.504 336
310.729 348
311.954 343
313.178 363
314.403 395
315.627 427
316.851 493
318.075 611
319.299 822
320.523 1103
321.746 1339
322.970 1260
324.193 1018
325.416 789
326.639 614
327.862 520
329.084 477
330.306 422
331.529 424
332.751 401
333.973 397
335.194 382
336.416 370
337.637 367
338.858 366
340.080 352
341.300 352
342.521 360
343.742 361
344.962 364
346.182 367
347.402 380
348.622 380
349.842 380
351.062 387
352.281 390
353.500 369
354.719 368
355.938 360
357.157 348
358.376 351
359.594 335
360.812 333
362.030 330
363.248 334
364.466 326
365.684 329
366.901 329
368.118 329
369.336 335
370.553 323
371.769 325
372.986 324
374.202 329
375.419 335
376.635 331
377.851 337
379.067 339
380.282 341
381.498 355
382.713 343
383.928 352
385.143 357
386.358 360
387.573 380
388.787 377
390.002 375
391.216 384
392.430 364
393.644 361
394.857 359
396.071 363
397.284 350
398.497 347
399.710 339
400.923 336
402.136 335
403.348 335
404.561 331
405.773 329
406.985 334
408.197 325
409.409 329
410.620 332
411.832 330
413.043 335
414.254 326
415.465 323
416.676 325
417.886 323
419.096 326
420.307 324
421.517 324
422.727 321
423.937 314
425.146 321
426.356 318
427.565 317
428.774 315
429.983 323
431.192 322
432.400 322
433.609 323
434.817 329
436.025 344
437.233 338
438.441 341
439.649 366
440.856 357
442.063 358
443.270 373
444.477 371
445.684 367
446.891 369
448.097 362
449.304 355
450.510 352
451.716 357
452.922 352
454.128 346
455.333 348
456.538 352
457.744 342
458.949 340
460.154 347
461.358 344
462.563 342
463.767 356
464.971 354
466.175 358
467.379 356
468.583 345
469.787 344
470.990 345
472.193 325
473.396 326
474.599 324
475.802 318
477.005 315
478.207 317
479.409 320
480.612 312
481.813 313
483.015 309
484.217 311
485.418 308
486.620 309
487.821 309
489.022 312
490.223 311
491.423 308
492.624 306
493.824 304
495.024 301
496.224 309
497.424 303
498.624 305
499.823 309
501.023 312
502.222 299
503.421 308
504.620 307
505.818 310
507.017 313
508.215 314
509.414 311
510.612 313
511.810 321
513.007 317
514.205 324
515.402 324
516.599 336
517.797 336
518.993 333
520.190 347
521.387 344
522.583 344
523.780 336
524.976 335
526.172 322
527.367 327
528.563 318
529.759 316
530.954 317
532.149 319
533.344 321
534.539 318
535.733 322
536.928 316
538.122 315
539.317 313
540.511 312
541.704 308
542.898 313
544.092 306
545.285 304
546.478 305
547.671 301
548.864 296
550.057 297
551.249 298
552.442 302
553.634 299
554.826 301
556.018 300
557.210 302
558.401 302
559.593 304
560.784 304
561.975 310
563.166 311
564.357 306
565.548 314
566.738 314
567.928 319
569.119 327
570.309 324
571.498 341
572.688 338
573.878 335
575.067 337
576.256 337
577.445 329
578.634 328
579.823 319
581.011 313
582.200 313
583.388 309
584.576 320
585.764 311
586.951 305
588.139 307
589.326 312
590.514 306
591.701 309
592.888 312
594.074 308
595.261 316
596.448 309
597.634 315
598.820 312
600.006 315
601.192 320
602.377 317
603.563 328
604.748 319
605.933 329
607.118 337
608.303 331
609.488 346
610.672 346
611.857 348
613.041 351
614.225 348
615.409 345
616.593 340
617.776 334
618.960 332
620.143 332
621.326 328
622.509 331
623.692 315
624.874 320
626.057 318
627.239 318
628.421 305
629.603 317
630.785 315
631.966 322
633.148 315
634.329 307
635.510 304
636.691 315
637.872 310
639.053 309
640.233 306
641.414 301
642.594 310
643.774 303
644.954 303
646.133 302
647.313 299
648.492 299
649.672 304
650.851 303
652.030 298
653.208 297
654.387 296
655.565 296
656.744 294
657.922 299
659.100 302
660.278 296
661.455 300
662.633 299
663.810 295
664.987 297
666.164 298
667.341 299
668.518 301
669.694 296
670.871 294
672.047 298
673.223 302
674.399 298
675.574 296
676.750 297
677.925 299
679.101 301
680.276 297
681.451 298
682.625 299
683.800 299
684.974 301
686.149 296
687.323 302
688.497 298
689.671 304
690.844 299
692.018 298
693.191 294
694.364 300
695.537 302
696.710 299
697.883 301
699.055 300
700.228 297
701.400 296
702.572 302
703.744 299
704.916 301
706.087 301
707.259 308
708.430 299
709.601 302
710.772 305
711.943 301
713.113 304
714.284 298
715.454 301
716.624 308
717.794 305
718.964 304
720.134 303
721.303 303
722.473 301
723.642 299
724.811 303
725.980 298
727.148 301
728.317 296
729.485 307
730.654 296
731.822 310
732.990 301
734.157 303
735.325 303
736.492 302
737.660 301
738.827 300
739.994 302
741.161 304
742.327 302
743.494 308
744.660 301
745.826 300
746.992 305
748.158 306
749.324 305
750.490 299
751.655 302
752.820 302
753.985 300
755.150 310
756.315 305
757.479 306
758.644 307
759.808 304
760.972 304
762.136 303
763.300 301
764.464 304
765.627 304
766.791 299
767.954 303
769.117 304
770.280 305
771.442 309
772.605 308
773.767 306
774.929 303
776.091 300
777.253 307
778.415 303
779.577 306
780.738 307
781.899 305
783.061 314
784.221 312
785.382 312
786.543 313
787.703 315
788.864 312
790.024 311
791.184 312
792.344 316
793.503 310
794.663 317
795.822 314
796.982 316
798.141 316
799.300 324
800.458 314
801.617 320
802.775 312
803.934 323
805.092 327
806.250 333
807.407 330
808.565 335
809.723 328
810.880 333
812.037 341
813.194 337
814.351 336
815.508 332
816.664 339
817.821 337
818.977 347
820.133 343
821.289 349
822.445 343
823.600 354
824.756 366
825.911 375
827.066 385
828.221 382
829.376 403
830.530 410
831.685 430
832.839 458
833.993 481
835.147 496
836.301 531
837.455 589
838.609 633
839.762 707
840.915 772
842.068 848
843.221 890
844.374 918
845.527 909
846.679 851
847.831 806
848.983 748
850.135 675
851.287 624
852.439 576
853.590 541
854.742 531
855.893 505
857.044 506
858.195 517
859.346 523
860.496 548
861.647 564
862.797 580
863.947 636
865.097 681
866.247 749
867.396 840
868.546 945
869.695 1019
870.844 1110
871.993 1156
873.142 1150
874.291 1058
875.439 973
876.588 874
877.736 762
878.884 676
880.032 599
881.180 546
882.327 506
883.475 456
884.622 444
885.769 422
886.916 406
888.063 395
889.209 386
890.356 382
891.502 374
892.648 374
893.794 375
894.940 371
896.086 373
897.232 372
898.377 373
899.522 376
900.667 382
901.812 391
902.957 395
904.102 412
905.246 428
906.390 448
907.534 457
908.678 478
909.822 486
910.966 496
912.110 495
913.253 498
914.396 496
915.539 471
916.682 472
917.825 456
918.967 443
920.110 414
921.252 413
922.394 413
923.536 413
924.678 417
925.820 422
926.961 451
928.102 463
929.244 470
930.385 464
931.526 467
932.666 462
933.807 433
934.947 437
936.087 414
937.228 401
938.368 394
939.507 390
940.647 384
941.786 368
942.926 373
944.065 365
945.204 357
946.343 354
947.481 350
948.620 355
949.758 346
950.897 348
952.035 352
953.173 344
954.310 343
955.448 347
956.585 353
957.723 348
958.860 354
959.997 349
961.134 352
962.270 358
963.407 353
964.543 346
965.679 354
966.815 352
967.951 350
969.087 348
970.223 341
971.358 346
972.493 343
973.628 349
974.763 335
975.898 340
977.033 327
978.167 326
979.302 327
980.436 332
981.570 322
982.704 321
983.837 315
984.971 316
986.104 310
987.238 304
988.371 312
989.504 310
990.637 314
991.769 311
992.902 310
994.034 309
995.166 314
996.298 317
997.430 310
998.562 310
999.693 310
1000.825 301
1001.956 312
1003.087 313
1004.218 305
1005.349 305
1006.479 305
1007.610 308
1008.740 304
1009.870 309
1011.000 304
1012.130 303
1013.260 306
1014.389 307
1015.519 307
1016.648 308
1017.777 311
1018.906 310
1020.035 308
1021.163 309
1022.292 308
1023.420 308
1024.548 307
1025.676 309
1026.804 305
1027.932 306
1029.059 312
1030.187 307
1031.314 308
1032.441 311
1033.568 310
1034.695 309
1035.821 306
1036.948 311
1038.074 304
1039.200 311
1040.326 310
1041.452 313
1042.578 310
1043.703 304
1044.828 307
1045.954 311
1047.079 312
1048.204 306
1049.328 310
1050.453 311
1051.577 318
1052.702 312
1053.826 316
1054.950 308
1056.074 305
1057.197 308
1058.321 309
1059.444 308
1060.567 309
1061.690 313
1062.813 309
1063.936 311
1065.059 305
1066.181 306
1067.303 313
1068.426 310
1069.548 310
1070.669 307
1071.791 312
1072.913 310
1074.034 307
1075.155 311
1076.276 313
1077.397 312
1078.518 311
1079.638 314
1080.759 315
1081.879 312
1082.999 313
1084.119 314
1085.239 313
1086.359 315
1087.478 314
1088.598 315
1089.717 318
1090.836 318
1091.955 316
1093.074 316
1094.192 315
1095.311 313
1096.429 313
1097.547 315
1098.665 312
1099.783 311
1100.901 319
1102.018 310
1103.136 315
1104.253 305
1105.370 317
1106.487 307
1107.603 310
1108.720 308
1109.837 314
1110.953 304
1112.069 309
1113.185 309
1114.301 312
1115.416 308
1116.532 310
1117.647 309
1118.763 311
1119.878 314
1120.993 309
1122.107 314
1123.222 311
1124.336 313
1125.451 315
1126.565 310
1127.679 310
1128.793 316
1129.906 315
1131.020 310
1132.133 310
1133.247 314
1134.360 310
1135.473 307
1136.585 310
1137.698 319
1138.811 312
1139.923 318
1141.035 311
1142.147 310
1143.259 310
1144.371 311
1145.482 312
1146.594 304
1147.705 311
1148.816 317
1149.927 317
1151.038 317
1152.148 313
1153.259 320
1154.369 309
1155.479 313
1156.589 313
1157.699 318
1158.809 314
1159.918 312
1161.028 315
1162.137 305
1163.246 317
1164.355 307
1165.464 320
1166.573 317
1167.681 322
1168.790 309
1169.898 312
1171.006 316
1172.114 322
1173.221 317
1174.329 312
1175.436 312
1176.544 319
1177.651 312
1178.758 319
1179.865 326
1180.971 318
1182.078 318
1183.184 306
1184.290 320
1185.397 319
1186.502 325
1187.608 321
1188.714 320
1189.819 317
1190.925 318
1192.030 320
1193.135 318
1194.240 323
1195.344 313
1196.449 321
1197.553 313
1198.657 317
1199.762 316
1200.865 316
