#Shining_header
#Data type:raman_database
#CAS:Not entered
#Material scientific name:dolomite
#Manufacturer:Not entered
#Laser model:Not entered
#Spectrometer model:Not entered
#Testing unit:Not entered
#Test time:Not entered
#Other experimental details:Not entered
#Shining_data
145.5165 0.0000000E+00
145.9986 1.1841000E-02
146.4807 0.1239470
146.9629 0.3947140
147.4450 1.316086
147.9271 2.740997
148.4092 4.308731
148.8913 5.598160
149.3734 6.393616
149.8556 6.894333
150.3377 7.953781
150.8198 10.29228
151.3019 12.43283
151.7840 13.97795
152.2661 15.24214
152.7483 16.74788
153.2304 18.84351
153.7125 21.47575
154.1946 23.82166
154.6767 25.60562
155.1588 27.43735
155.6410 29.54790
156.1231 31.91505
156.6052 34.38997
157.0873 36.87775
157.5694 39.39168
158.0515 41.99174
158.5337 44.71033
159.0158 47.48566
159.4979 50.25661
159.9800 53.01863
160.4621 55.75632
160.9442 58.39136
161.4264 60.97737
161.9085 63.68005
162.3906 66.71217
162.8727 69.83467
163.3548 72.71172
163.8369 75.36021
164.3191 77.66438
164.8012 79.76570
165.2833 81.56100
165.7654 82.65290
166.2475 82.70203
166.7296 81.78609
167.2118 80.48922
167.6939 78.69509
168.1760 76.86016
168.6581 75.22314
169.1402 73.70312
169.6223 71.81802
170.1045 69.11661
170.5866 65.64008
171.0687 62.07773
171.5508 58.38969
172.0329 54.68954
172.5150 50.63071
172.9972 46.40837
173.4793 42.53149
173.9614 39.58242
174.4435 37.85983
174.9256 35.67850
175.4077 32.80730
175.8899 30.01424
176.3720 27.35553
176.8541 25.13637
177.3362 23.19141
177.8183 21.12124
178.3004 18.88332
178.7826 16.99514
179.2647 15.59789
179.7468 14.40469
180.2289 13.22840
180.7110 11.97552
181.1931 10.70748
181.6752 9.520409
182.1574 8.327667
182.6395 7.414978
183.1216 7.063339
183.6037 6.930260
184.0858 6.575066
184.5679 5.862717
185.0501 4.968094
185.5322 4.106186
186.0143 3.239296
186.4964 2.557541
186.9785 2.211662
187.4606 2.108231
187.9428 2.029007
188.4249 1.960548
188.9070 1.820633
189.3891 1.478271
189.8712 0.9182890
190.3533 0.3928830
190.8355 8.9546002E-02
191.3176 1.9035000E-02
191.7997 0.1505130
192.2818 0.4245760
192.7639 0.6778030
193.2460 0.7554780
193.7282 0.6473770
194.2103 0.5053480
194.6924 0.4600830
195.1745 0.5176700
195.6566 0.6154560
196.1387 0.7655410
196.6209 0.9392470
197.1030 1.148041
197.5851 1.388687
198.0672 1.599197
198.5493 1.682503
199.0314 1.584442
199.5136 1.529274
199.9957 1.549255
200.4778 1.609589
200.9599 1.708076
201.4420 1.838005
201.9241 1.966888
202.4063 2.053169
202.8884 2.128426
203.3705 1.982239
203.8526 1.552139
204.3347 1.105179
204.8168 0.9090120
205.2990 1.025879
205.7811 1.249458
206.2632 1.177910
206.7453 0.3741530
207.2274 9.2651002E-02
207.7095 3.4003999E-02
208.1917 0.3475800
208.6738 0.4683840
209.1559 0.2684710
209.6380 0.1075210
210.1201 0.3706890
210.6022 0.4276280
211.0844 0.5002820
211.5665 0.5186080
212.0486 0.5841600
212.5307 0.9087830
213.0128 1.587166
213.4949 2.329330
213.9771 2.449341
214.4592 1.493874
214.9413 0.9646910
215.4234 1.515854
215.9055 2.577469
216.3876 3.209076
216.8698 3.018280
217.3519 2.476379
217.8340 2.562393
218.3161 3.429718
218.7982 4.108109
219.2803 4.120224
219.7625 3.715363
220.2446 3.447800
220.7267 3.488358
221.2088 3.736008
221.6909 4.071045
222.1730 4.510857
222.6552 4.897827
223.1373 5.132011
223.6194 5.244789
224.1015 5.338417
224.5836 5.399696
225.0657 5.505592
225.5479 5.703674
226.0300 5.989258
226.5121 6.404213
226.9942 7.129425
227.4763 8.085602
227.9584 8.716515
228.4406 8.711517
228.9227 8.529839
229.4048 8.471779
229.8869 8.553886
230.3690 8.847748
230.8511 9.543411
231.3333 10.62566
231.8154 11.47869
232.2975 11.84963
232.7796 12.11876
233.2617 12.51102
233.7438 13.02362
234.2260 13.54227
234.7081 13.92802
235.1902 14.16343
235.6723 14.52635
236.1544 15.13129
236.6365 15.79948
237.1187 16.48123
237.6008 17.16073
238.0829 17.81230
238.5650 18.36848
239.0471 18.79195
239.5292 19.39700
240.0114 20.46138
240.4935 21.47919
240.9756 22.18752
241.4577 22.64929
241.9398 23.12546
242.4219 23.86494
242.9041 24.89303
243.3862 25.97658
243.8683 27.19496
244.3504 28.39243
244.8325 29.47699
245.3146 30.48092
245.7968 31.49685
246.2789 32.57722
246.7610 33.70318
247.2431 35.11807
247.7252 37.06483
248.2073 39.02922
248.6895 40.82651
249.1716 42.49118
249.6537 44.09731
250.1358 45.67824
250.6179 47.22124
251.1000 49.04396
251.5822 51.31958
252.0643 53.69000
252.5464 56.04146
253.0285 58.37199
253.5106 60.71410
253.9927 63.11377
254.4748 65.55824
254.9570 67.91048
255.4391 69.89218
255.9212 72.07835
256.4033 74.71185
256.8854 77.73292
257.3676 80.99438
257.8497 84.43637
258.3318 88.02195
258.8139 91.38842
259.2960 94.28577
259.7781 97.27882
260.2603 100.5007
260.7424 103.9737
261.2245 107.7872
261.7066 112.0199
262.1887 116.6038
262.6708 121.1227
263.1530 125.4804
263.6351 129.8770
264.1172 134.5424
264.5993 139.3666
265.0814 144.0161
265.5635 148.2679
266.0457 152.2454
266.5278 156.3577
267.0099 160.6366
267.4920 165.0386
267.9741 169.5037
268.4562 174.0583
268.9384 178.7822
269.4204 183.7179
269.9026 188.7727
270.3847 193.7665
270.8668 198.6917
271.3489 203.5740
271.8310 208.5266
272.3131 213.3819
272.7953 217.8315
273.2774 221.7327
273.7595 225.3419
274.2416 229.0834
274.7237 232.9680
275.2058 236.8004
275.6880 240.8409
276.1701 244.7559
276.6522 247.8730
277.1343 249.9938
277.6164 251.5356
278.0985 252.9965
278.5807 254.3912
279.0628 255.4403
279.5449 256.0616
280.0270 256.2899
280.5091 256.2170
280.9912 255.8853
281.4734 255.1143
281.9555 253.5108
282.4376 251.2424
282.9197 248.9107
283.4018 246.9357
283.8839 244.8632
284.3661 241.9587
284.8482 238.0808
285.3303 234.0309
285.8124 230.6740
286.2945 227.6303
286.7766 223.9172
287.2588 219.0126
287.7409 213.5335
288.2230 208.1823
288.7051 202.9982
289.1872 197.7453
289.6693 192.2465
290.1515 186.6037
290.6336 181.1368
291.1157 176.0096
291.5978 170.8850
292.0799 165.4435
292.5620 159.6745
293.0442 153.7238
293.5263 147.4689
294.0084 141.1991
294.4905 135.3227
294.9726 129.9087
295.4547 124.7285
295.9369 119.6795
296.4190 114.7523
296.9011 109.7993
297.3832 104.6935
297.8653 99.67185
298.3474 94.95337
298.8296 90.56670
299.3117 86.37071
299.7938 82.28489
300.2759 78.31805
300.7580 74.57079
301.2401 71.12132
301.7223 67.82566
302.2044 64.50645
302.6865 61.16862
303.1686 58.00111
303.6507 55.09975
304.1328 52.44028
304.6150 49.98187
305.0971 47.78759
305.5792 45.68739
306.0613 43.51820
306.5434 41.31671
307.0255 39.23532
307.5077 37.39964
307.9898 35.73635
308.4719 34.07621
308.9540 32.40168
309.4361 30.82095
309.9182 29.36527
310.4004 28.05022
310.8825 26.93027
311.3646 26.10294
311.8467 25.38460
312.3288 24.56565
312.8109 23.64465
313.2931 22.66505
313.7752 21.56758
314.2573 20.46410
314.7394 19.49255
315.2215 18.67917
315.7036 17.98726
316.1858 17.35851
316.6679 16.76932
317.1500 16.32426
317.6321 16.27193
318.1142 16.25438
318.5963 15.89005
319.0785 15.14078
319.5606 14.31670
320.0427 13.60162
320.5248 12.98586
321.0069 12.43849
321.4890 11.91074
321.9712 11.52007
322.4533 11.41360
322.9354 11.55570
323.4175 11.69410
323.8996 11.71889
324.3817 11.59145
324.8639 11.25267
325.3460 10.63662
325.8281 10.01968
326.3102 9.641647
326.7923 9.417580
327.2744 9.180534
327.7566 8.842781
328.2387 8.443413
328.7208 8.029785
329.2029 7.574036
329.6850 7.285965
330.1671 7.502571
330.6493 7.892838
331.1314 7.934914
331.6135 7.310944
332.0956 6.626968
332.5777 6.647354
333.0598 7.343529
333.5420 7.734085
334.0241 7.274605
334.5062 6.451233
334.9883 5.936005
335.4704 5.783676
335.9525 5.711128
336.4347 5.622513
336.9168 5.451469
337.3989 5.169975
337.8810 4.726402
338.3631 4.276932
338.8452 3.898697
339.3274 3.608475
339.8094 3.396515
340.2916 3.264633
340.7737 3.220871
341.2558 3.189926
341.7379 3.203125
342.2200 3.178185
342.7021 3.038773
343.1843 2.807770
343.6664 2.541252
344.1485 2.234756
344.6306 1.911362
345.1127 1.548561
345.5948 1.158478
346.0770 0.8810810
346.5591 0.8859100
347.0412 1.033836
347.5233 0.9228360
348.0054 0.3227390
348.4875 0.1644590
348.9697 6.7939997E-02
349.4518 0.4460830
349.9339 0.7798840
350.4160 0.6643600
350.8981 0.3412020
351.3802 0.2030870
351.8624 0.2598270
352.3445 0.3610530
352.8266 0.5077900
353.3087 0.6549000
353.7908 0.7378850
354.2729 0.7449260
354.7551 0.6753850
355.2372 0.4793930
355.7193 0.1580510
356.2014 0.1002580
356.6835 0.2369460
357.1656 0.3314060
357.6478 0.4670490
358.1299 0.6385650
358.6120 0.7628170
359.0941 0.7784650
359.5762 0.6924510
360.0583 0.5883560
360.5405 0.3914410
361.0226 0.2553940
361.5047 0.2646640
361.9868 0.3811490
362.4689 0.5487670
362.9510 0.7595210
363.4332 0.9497150
363.9153 0.9398350
364.3974 0.5897600
364.8795 0.3300860
365.3616 0.2185670
365.8438 0.2220840
366.3259 0.3526380
366.8080 0.6030960
367.2901 0.8529050
367.7722 0.9609300
368.2543 0.9013060
368.7365 0.7654720
369.2186 0.4672620
369.7007 0.1761930
370.1828 4.9828000E-02
370.6649 0.1892170
371.1470 0.1956180
371.6292 1.7593000E-02
372.1113 0.3244780
372.5934 0.5683140
373.0755 0.7905270
373.5576 0.8329850
374.0397 0.4751360
374.5219 3.4522999E-02
375.0040 0.3415070
375.4861 0.2951660
375.9682 3.2242000E-02
376.4503 0.1556240
376.9324 0.2371220
377.4146 0.2894440
377.8967 0.3033600
378.3788 0.2990880
378.8609 0.2706450
379.3430 0.2289810
379.8251 0.2255940
380.3073 0.3492890
380.7894 0.6529010
381.2715 0.7059400
381.7536 0.2721630
382.2357 0.1765980
382.7178 0.5848160
383.2000 0.8825230
383.6821 0.9410170
384.1642 0.6436610
384.6463 0.1162870
385.1284 0.1378480
385.6105 1.6502000E-02
386.0927 0.2445530
386.5748 0.6333850
387.0569 0.9710770
387.5390 0.9902650
388.0211 0.6260990
388.5032 0.1823270
388.9854 0.1110610
389.4675 0.4969710
389.9496 0.7845760
390.4317 0.8755720
390.9138 0.8795620
391.3959 0.8075330
391.8781 0.6853790
392.3602 0.5817870
392.8423 0.5413740
393.3244 0.5604550
393.8065 2.8687000E-02
394.2886 0.6809770
394.7708 1.065201
395.2529 1.195732
395.7350 0.3161540
396.2171 0.7401890
396.6992 0.6420440
397.1813 0.5216290
397.6635 1.126106
398.1456 0.3898540
398.6277 0.9817730
399.1098 1.042908
399.5919 1.347267
400.0740 1.126343
400.5562 1.067970
401.0383 1.536369
401.5204 1.714211
402.0025 1.432053
402.4846 1.749588
402.9667 0.9908290
403.4489 1.175018
403.9310 1.766495
404.4131 1.507004
404.8952 1.831078
405.3773 1.932045
405.8594 1.020439
406.3416 1.866814
406.8237 1.952850
407.3058 1.258034
407.7879 2.045593
408.2700 1.458511
408.7521 1.362984
409.2343 1.640289
409.7164 1.542091
410.1985 2.052704
410.6806 1.962166
411.1627 1.816124
411.6448 1.897652
412.1269 1.332695
412.6090 2.073647
413.0912 2.068886
413.5733 2.002365
414.0554 1.797050
414.5375 1.599075
415.0196 1.468651
415.5017 1.414688
415.9839 1.455589
416.4660 1.618584
416.9481 1.869202
417.4302 2.027138
417.9123 2.030746
418.3944 1.999283
418.8766 1.923592
419.3587 1.846474
419.8408 1.814766
420.3229 1.836388
420.8050 1.877388
421.2871 1.908401
421.7693 1.965179
422.2514 1.949158
422.7335 1.720665
423.2156 1.538651
423.6977 1.563614
424.1798 1.713585
424.6620 1.777451
425.1441 1.596443
425.6262 1.273491
426.1083 1.216339
426.5904 1.660896
427.0725 1.938347
427.5547 1.766647
428.0368 1.448380
428.5189 1.227623
429.0010 1.163406
429.4831 1.187325
429.9652 1.229164
430.4474 1.291458
430.9295 1.368210
431.4116 1.555092
431.8937 1.676331
432.3758 1.558319
432.8579 1.265854
433.3401 1.036697
433.8222 0.9722520
434.3043 1.019279
434.7864 1.145927
435.2685 1.368988
435.7506 1.509590
436.2328 1.445259
436.7149 1.274956
437.1970 1.171799
437.6791 1.135384
438.1612 1.100990
438.6433 1.037788
439.1255 0.9671860
439.6076 0.9353410
440.0897 0.9480970
440.5718 0.9706880
441.0539 0.9838940
441.5360 0.9847490
442.0182 0.9303740
442.5003 0.7297900
442.9824 0.5225220
443.4645 0.3967210
443.9466 0.3647770
444.4287 0.4750980
444.9109 0.7666020
445.3930 1.129890
445.8751 1.267464
446.3572 0.9503020
446.8393 0.7245560
447.3214 0.6910320
447.8036 0.7358250
448.2857 0.7841110
448.7678 0.8142320
449.2499 0.8084340
449.7320 0.7384640
450.2141 0.5978780
450.6963 0.5126340
451.1784 0.5028230
451.6605 0.5064620
452.1426 0.6322710
452.6247 0.7819140
453.1068 0.8181840
453.5890 0.6599430
454.0711 0.4815290
454.5532 0.5525820
455.0353 0.9952700
455.5174 1.273544
455.9995 1.155289
456.4817 0.9572530
456.9638 0.7498780
457.4459 0.5567320
457.9280 0.4039690
458.4101 0.2896120
458.8922 0.2369380
459.3744 0.3438570
459.8565 0.6801530
460.3386 0.9424440
460.8207 0.8592380
461.3028 0.6735760
461.7849 0.6880870
462.2671 1.002319
462.7492 1.283836
463.2313 1.243980
463.7134 0.9653470
464.1955 0.7518770
464.6776 0.6654590
465.1598 0.6017610
465.6419 0.4525600
466.1240 0.2245100
466.6061 5.4740999E-02
467.0882 0.1191100
467.5703 0.1594770
468.0525 0.1857450
468.5346 0.7738270
469.0167 1.110558
469.4988 0.9201970
469.9809 0.4534990
470.4630 0.3290330
470.9452 0.8658750
471.4273 1.163818
471.9094 1.002983
472.3915 0.7212370
472.8736 0.6125110
473.3557 0.6754000
473.8379 0.6869130
474.3200 0.4316020
474.8021 6.0020000E-02
475.2842 0.2800830
475.7663 4.6021000E-02
476.2484 0.3178630
476.7306 0.4189000
477.2127 0.4298100
477.6948 0.4398040
478.1769 0.4753110
478.6590 0.4991610
479.1411 0.4484330
479.6233 0.3123700
480.1054 0.2187650
480.5875 0.1507870
481.0696 0.1589050
481.5517 0.3069760
482.0338 0.5403370
482.5159 0.7532960
482.9980 0.9291690
483.4802 1.021385
483.9623 0.9143520
484.4444 0.6101070
484.9265 0.3777850
485.4086 0.3349150
485.8907 0.3654100
486.3729 0.3002170
486.8550 0.1335530
487.3371 3.3295002E-02
487.8192 9.7023003E-02
488.3013 0.2349320
488.7834 0.3412780
489.2656 0.4108580
489.7477 0.4976880
490.2298 0.6579130
490.7119 0.8530650
491.1940 0.8848880
491.6761 0.5435180
492.1583 0.3495480
492.6404 0.6138530
493.1225 0.9641040
493.6046 0.8761980
494.0867 0.3020250
494.5688 0.2533870
495.0510 0.2044070
495.5331 0.5148470
496.0152 0.9405590
496.4973 0.8479000
496.9794 0.6968840
497.4615 0.5359270
497.9437 0.3998260
498.4258 0.3333590
498.9079 0.3529660
499.3900 0.4098430
499.8721 0.4271010
500.3542 0.3956220
500.8364 0.3877180
501.3185 0.3893360
501.8006 0.4452970
502.2827 0.6635970
502.7648 0.9577870
503.2469 1.095352
503.7291 0.8762360
504.2112 0.5473860
504.6933 0.4948500
505.1754 0.7082670
505.6575 0.8243260
506.1396 0.6495590
506.6218 0.3952940
507.1039 0.4111180
507.5860 0.7211230
508.0681 0.9336010
508.5502 0.8537060
509.0323 0.6891940
509.5145 0.6815340
509.9966 0.8147660
510.4787 0.8686140
510.9608 0.6765670
511.4429 0.3327560
511.9250 0.2266160
512.4072 0.6518630
512.8893 0.9284740
513.3714 0.9296110
513.8535 0.8182070
514.3356 0.7165220
514.8177 0.6482700
515.2999 0.5804670
515.7820 0.4674530
516.2641 0.3215260
516.7462 0.3299410
517.2283 0.6071240
517.7104 0.8800960
518.1926 1.206772
518.6747 1.430450
519.1568 1.298317
519.6389 0.7642970
520.1210 0.2601240
520.6031 0.3049620
521.0853 0.7945940
521.5674 1.032227
522.0495 0.9060290
522.5316 0.6635360
523.0137 0.3206180
523.4958 1.5260000E-03
523.9780 1.1139000E-02
524.4601 0.5535660
524.9422 1.075615
525.4243 1.108231
525.9064 0.8282170
526.3885 0.5573500
526.8707 0.3703380
527.3528 0.2958830
527.8349 0.4026950
528.3170 0.7287290
528.7991 0.8721470
529.2813 0.6592640
529.7634 0.4616780
530.2455 0.4630430
530.7276 0.5769200
531.2097 0.6353530
531.6918 0.5742190
532.1740 0.4867860
532.6561 0.5435260
533.1382 0.8238750
533.6203 0.9783330
534.1024 0.7450870
534.5845 0.6046520
535.0667 0.8575590
535.5488 1.317116
536.0309 1.612061
536.5130 1.557930
536.9951 1.312172
537.4772 1.048195
537.9594 0.7619860
538.4415 0.6640850
538.9236 0.9337840
539.4057 1.225220
539.8878 1.101730
540.3699 0.6628110
540.8521 0.4835740
541.3342 1.040840
541.8163 1.663147
542.2984 1.701050
542.7805 1.278610
543.2626 0.9032060
543.7448 0.7847670
544.2269 0.7988510
544.7090 0.7241970
545.1911 0.4698030
545.6732 0.3821110
546.1553 0.6367340
546.6375 0.8921890
547.1196 0.9466480
547.6017 0.8434140
548.0838 0.7018810
548.5659 0.5807720
549.0480 0.5032960
549.5302 0.5382160
550.0123 0.7395480
550.4944 0.8923420
550.9765 0.9630660
551.4586 0.9887160
551.9407 0.9893260
552.4229 0.9602130
552.9050 0.9087140
553.3871 0.8310470
553.8692 0.7234310
554.3513 0.5437850
554.8334 0.2955090
555.3156 0.1522330
555.7977 0.1860730
556.2798 0.3281820
556.7619 0.5275920
557.2440 0.7909550
557.7261 0.9422340
558.2083 0.8420600
558.6904 0.7070960
559.1725 0.7290610
559.6546 0.8626940
560.1367 0.9260330
560.6188 0.8248560
561.1010 0.6796840
561.5831 0.7657240
562.0652 1.346451
562.5473 1.552643
563.0294 1.095310
563.5115 0.6005860
563.9937 0.3558120
564.4758 0.3237150
564.9579 0.3618700
565.4400 0.3997840
565.9221 0.4548870
566.4042 0.5599440
566.8864 0.7169150
567.3685 0.9213910
567.8506 1.292683
568.3327 1.561684
568.8148 1.468903
569.2969 1.100842
569.7791 0.7798770
570.2612 0.5728300
570.7433 0.4903870
571.2254 0.6461370
571.7075 0.9598920
572.1896 1.100998
572.6718 0.8976330
573.1539 0.5949480
573.6360 0.5371740
574.1181 0.7907100
574.6002 0.9977650
575.0823 1.273808
575.5645 1.388626
576.0466 1.104656
576.5287 0.6721270
577.0108 0.3377080
577.4929 0.2631650
577.9750 0.3481980
578.4572 0.4905700
578.9393 0.6425820
579.4214 0.7711640
579.9035 0.9237750
580.3856 0.9554750
580.8677 0.7621730
581.3499 0.4449880
581.8320 0.3334660
582.3141 0.5692410
582.7962 0.8353420
583.2783 0.8114200
583.7604 0.5880010
584.2426 0.4665030
584.7247 0.5130420
585.2068 0.5613100
585.6889 0.4397580
586.1710 0.1774020
586.6531 0.1312600
587.1352 0.5996130
587.6173 0.9054260
588.0994 0.6402890
588.5815 0.2251170
589.0637 0.1898120
589.5458 0.5992970
590.0279 1.104771
590.5100 1.385715
590.9921 1.455288
591.4742 1.449696
591.9564 1.308151
592.4385 1.196712
592.9206 1.205517
593.4027 1.224274
593.8848 1.134308
594.3669 0.9305340
594.8491 0.7440380
595.3312 0.7125130
595.8133 0.7455900
596.2954 0.6253090
596.7775 0.3424950
597.2596 9.5779002E-02
597.7418 3.6697000E-02
598.2239 6.2302001E-02
598.7060 4.4594001E-02
599.1881 0.3419610
599.6702 0.5216710
600.1523 0.4162480
600.6345 0.2863390
601.1166 0.3463100
601.5987 0.5389520
602.0808 0.6419180
602.5629 0.5342640
603.0450 0.3186040
603.5272 0.2173120
604.0093 0.2755580
604.4914 0.3091470
604.9735 0.2286910
605.4556 0.2027320
605.9377 0.4221150
606.4199 0.7341160
606.9020 0.8041000
607.3841 0.4343910
607.8662 2.7325001E-02
608.3483 0.1994550
608.8304 0.1361850
609.3126 9.0751998E-02
609.7947 0.1191640
610.2768 0.1285400
610.7589 9.3839997E-03
611.2410 0.2171820
611.7231 0.3190770
612.2053 0.1991460
612.6874 8.1188001E-02
613.1695 1.4587000E-02
613.6516 4.9706001E-02
614.1337 6.5761998E-02
614.6158 0.3159290
615.0980 0.5407790
615.5801 0.5869290
616.0622 0.4835130
616.5443 0.4379840
617.0264 0.4457400
617.5085 0.5229340
617.9907 0.8536720
618.4728 1.124722
618.9549 1.002926
619.4370 0.5190620
619.9191 0.1326710
620.4012 0.1145130
620.8834 0.3146400
621.3655 0.6378780
621.8476 1.040028
622.3297 1.172832
622.8118 0.8461720
623.2939 0.3561780
623.7761 0.1541140
624.2582 0.3326150
624.7403 0.4279860
625.2224 0.3857540
625.7045 0.3221780
626.1866 0.2404210
626.6688 0.1886060
627.1509 0.2960590
627.6330 0.5890460
628.1151 0.8266300
628.5972 0.5993460
629.0793 9.5698997E-02
629.5615 0.4492910
630.0436 0.3185770
630.5257 0.1289220
631.0078 8.5724004E-02
631.4899 9.9293001E-02
631.9720 4.4472001E-02
632.4542 0.1165620
632.9363 0.2072910
633.4184 6.8336003E-02
633.9005 0.6933520
634.3826 6.4456999E-02
634.8647 0.2973480
635.3469 0.4064450
635.8290 0.4940110
636.3111 9.1095001E-02
636.7932 0.2106780
637.2753 0.3518070
637.7574 0.2342260
638.2396 0.5200310
638.7217 5.4184001E-02
639.2038 9.7988002E-02
639.6859 0.3845520
640.1680 0.1454540
640.6501 6.8718001E-02
641.1323 0.5178260
641.6144 0.6757700
642.0965 0.3761750
642.5786 0.6781880
643.0607 9.4681002E-02
643.5428 7.5672001E-02
644.0250 0.5009160
644.5071 0.7305950
644.9892 0.8040580
645.4713 0.6301960
645.9534 0.4626120
646.4355 0.3674740
646.9177 0.3165660
647.3998 0.3062020
647.8819 0.3172450
648.3640 0.2801900
648.8461 0.1366580
649.3282 4.1889001E-02
649.8104 2.5791001E-02
650.2925 0.2698750
650.7746 0.4901310
651.2567 0.5513880
651.7388 0.5699230
652.2209 0.6067700
652.7031 0.6530190
653.1852 0.6801530
653.6673 0.6740990
654.1494 0.6553880
654.6315 0.6302260
655.1136 0.6067770
655.5958 0.6331060
656.0779 0.7167970
656.5600 0.7170260
657.0421 0.4719430
657.5242 4.2980000E-02
658.0063 0.1271020
658.4885 0.2602230
658.9706 0.5148740
659.4527 0.4458010
659.9348 0.3563230
660.4169 0.5186040
660.8990 0.8765030
661.3812 1.175739
661.8633 1.272022
662.3454 1.215336
662.8275 1.033752
663.3096 0.7353520
663.7917 0.5509760
664.2739 0.5434680
664.7560 0.6292460
665.2381 0.7820590
665.7202 0.9779130
666.2023 1.054047
666.6844 0.9086650
667.1666 0.7928850
667.6487 0.7620280
668.1308 0.8101200
668.6129 0.9976960
669.0950 1.279064
669.5771 1.469856
670.0593 1.413200
670.5414 1.198154
671.0235 1.119171
671.5056 1.206753
671.9877 1.319313
672.4698 1.440826
672.9520 1.565723
673.4341 1.683926
673.9162 1.801685
674.3983 1.944717
674.8804 2.188526
675.3625 2.363258
675.8447 2.276741
676.3268 2.067253
676.8089 1.986919
677.2910 2.077278
677.7731 2.227718
678.2552 2.355015
678.7374 2.457104
679.2195 2.526363
679.7016 2.601215
680.1837 2.569080
680.6658 2.173325
681.1479 1.893230
681.6301 2.156517
682.1122 2.794853
682.5943 3.273476
683.0764 3.320503
683.5585 3.191994
684.0406 3.065666
684.5228 2.986042
685.0049 3.190594
685.4870 3.745155
685.9691 4.196884
686.4512 4.122993
686.9333 3.637413
687.4155 3.448669
687.8976 3.841095
688.3797 4.219849
688.8618 4.550087
689.3439 4.844830
689.8260 5.073200
690.3082 5.280128
690.7903 5.591175
691.2724 6.103645
691.7545 6.588280
692.2366 6.766380
692.7188 6.668961
693.2009 6.886719
693.6830 7.543400
694.1651 8.254173
694.6472 8.640923
695.1293 8.799637
695.6115 9.171196
696.0936 9.851761
696.5757 10.46977
697.0578 10.71848
697.5399 11.01843
698.0220 11.74028
698.5042 12.79924
698.9863 13.89527
699.4684 14.87449
699.9505 15.82283
700.4326 16.85668
700.9147 17.97881
701.3969 19.22019
701.8790 20.66786
702.3611 22.02672
702.8432 22.97952
703.3253 23.76815
703.8074 24.92002
704.2896 26.51126
704.7717 28.25409
705.2538 30.37186
705.7359 32.36723
706.2180 33.62629
706.7001 34.43489
707.1823 35.49541
707.6644 37.13479
708.1465 39.17308
708.6286 41.41379
709.1107 43.86118
709.5928 46.11017
710.0750 48.14763
710.5571 50.02278
711.0392 51.63324
711.5213 53.15680
712.0034 54.85672
712.4855 56.76814
712.9677 58.60443
713.4498 60.09797
713.9319 61.64846
714.4140 63.66493
714.8961 65.98573
715.3782 68.25681
715.8604 70.33177
716.3425 72.25725
716.8246 74.07986
717.3067 75.80011
717.7888 77.11739
718.2709 77.95357
718.7531 78.58624
719.2352 79.21284
719.7173 79.58162
720.1994 79.51190
720.6815 78.99313
721.1636 77.96918
721.6458 76.33449
722.1279 74.25766
722.6100 71.78806
723.0921 68.99274
723.5742 65.94028
724.0563 62.67647
724.5385 59.29414
725.0206 55.85224
725.5027 52.37554
725.9848 48.94647
726.4669 45.44424
726.9490 42.20462
727.4312 39.38300
727.9132 36.76635
728.3953 34.22402
728.8774 31.75587
729.3596 29.33342
729.8417 26.86432
730.3238 24.58085
730.8059 22.59875
731.2880 20.91286
731.7701 19.60091
732.2523 18.58343
732.7344 17.55992
733.2165 16.36291
733.6986 15.06311
734.1807 13.80342
734.6628 12.52732
735.1450 11.54958
735.6271 11.12777
736.1092 10.70456
736.5913 9.972908
737.0734 9.070438
737.5555 8.179089
738.0377 7.304230
738.5198 6.579029
739.0019 6.112370
739.4840 5.797211
739.9661 5.575089
740.4482 5.406528
740.9304 5.209072
741.4125 4.948006
741.8946 4.625782
742.3767 4.211105
742.8588 3.691582
743.3409 3.378983
743.8231 3.390182
744.3052 3.373295
744.7873 3.152905
745.2694 2.883793
745.7515 2.731495
746.2336 2.694859
746.7158 2.610054
747.1979 2.405788
747.6800 2.157700
748.1621 1.891224
748.6442 1.626682
749.1263 1.368565
749.6085 1.134243
750.0906 1.014767
750.5727 1.119465
751.0548 1.362339
751.5369 1.382519
752.0190 1.116573
752.5012 0.9040150
752.9833 0.7956890
753.4654 0.7659230
753.9475 0.8707390
754.4296 1.036148
754.9117 1.050171
755.3939 0.7582470
755.8760 0.5635410
756.3581 0.8046990
756.8402 1.067585
757.3223 0.8320310
757.8044 0.2455710
758.2866 0.1320460
758.7687 2.1919001E-02
759.2508 0.3075640
759.7329 0.4627800
760.2150 0.4470790
760.6971 0.4145580
761.1793 0.3730160
761.6614 0.2981870
762.1435 0.1358640
762.6256 3.1048000E-02
763.1077 3.5202000E-02
763.5898 0.1476550
764.0720 0.2375140
764.5541 0.1257590
765.0362 2.6280000E-03
765.5183 0.1189540
766.0004 0.1686330
766.4825 3.1502001E-02
766.9647 0.2746430
767.4468 0.5400770
767.9289 0.5950580
768.4110 0.4926110
768.8931 0.2967830
769.3752 1.5472000E-02
769.8574 0.1128310
770.3395 1.3050000E-02
770.8216 0.1764220
771.3037 0.3829960
771.7858 0.5816990
772.2679 0.6219180
772.7501 0.3665050
773.2322 0.1595310
773.7143 4.0210001E-03
774.1964 8.0387004E-02
774.6785 4.6696000E-02
775.1606 6.1268002E-02
775.6428 0.1738780
776.1249 0.2697070
776.6070 0.3093490
777.0891 0.2266500
777.5712 6.8653002E-02
778.0533 7.8339003E-02
778.5355 0.2045440
779.0176 0.2679790
779.4997 0.2433130
779.9818 0.1828270
780.4639 0.1618420
780.9460 0.1848870
781.4282 0.2019200
781.9103 0.1932980
782.3924 0.2061650
782.8745 0.3573070
783.3566 0.4513630
783.8387 0.2256130
784.3209 0.2447620
784.8030 0.5334550
785.2851 0.3303910
785.7672 7.4780002E-02
786.2493 0.1920620
786.7314 0.4723090
787.2136 0.5418820
787.6957 0.3643570
788.1778 8.3434999E-02
788.6599 0.2318800
789.1420 0.4677240
789.6241 0.2774350
790.1063 0.4742970
790.5884 0.8774220
791.0705 0.7266200
791.5526 0.5222660
792.0347 0.5221290
792.5168 0.6028980
792.9990 0.5676080
793.4811 0.3840290
793.9632 0.3006290
794.4453 0.4615440
794.9274 0.6544000
795.4095 0.7532730
795.8917 0.7986530
796.3738 0.8645710
796.8559 0.9627040
797.3380 1.054043
797.8201 1.122021
798.3022 1.139473
798.7844 0.9882550
799.2665 0.6763040
799.7486 0.5151180
800.2307 0.5874860
800.7128 0.7272610
801.1949 0.8311690
801.6771 0.8946650
802.1592 0.8984410
802.6413 0.7546580
803.1234 0.7012750
803.6055 0.8605840
804.0876 0.9831280
804.5698 0.8761410
805.0519 0.6774220
805.5340 0.6255150
806.0161 0.7765920
806.4982 0.9346810
806.9803 0.9318120
807.4625 0.8739280
807.9446 0.9449500
808.4267 1.096313
808.9088 1.126598
809.3909 0.9798620
809.8730 0.7896880
810.3552 0.6768040
810.8373 0.6400760
811.3194 0.6904180
811.8015 0.8982540
812.2836 0.9846730
812.7657 0.8072620
813.2479 0.6224750
813.7300 0.6047100
814.2121 0.6958270
814.6942 0.7798960
815.1763 0.8491440
815.6584 0.8958240
816.1406 0.8402980
816.6227 0.8307000
817.1048 1.089596
817.5869 1.436016
818.0690 1.437485
818.5511 0.9968610
819.0333 0.5816690
819.5154 0.7143860
819.9975 1.203075
820.4796 1.505978
820.9617 1.625992
821.4438 1.546516
821.9260 1.217392
822.4081 0.8555450
822.8902 0.6441150
823.3723 0.5647510
823.8544 0.5461310
824.3365 0.6327020
824.8187 0.7366260
825.3008 0.9022290
825.7829 1.029297
826.2650 1.050880
826.7471 1.004120
827.2292 0.9246600
827.7114 0.8057560
828.1935 0.7989040
828.6756 1.123241
829.1577 1.480915
829.6398 1.507324
830.1219 1.307568
830.6041 1.178452
831.0862 1.197784
831.5683 1.230461
832.0504 1.144554
832.5325 0.9828870
833.0146 0.8637960
833.4968 0.7724040
833.9789 0.8370670
834.4610 1.168930
834.9431 1.449013
835.4252 1.411995
835.9073 1.163677
836.3895 1.044800
836.8716 1.112003
837.3537 1.165878
837.8358 1.169792
838.3179 1.179012
838.8000 1.281170
839.2822 1.372784
839.7643 1.257092
840.2464 0.9311450
840.7285 0.6960490
841.2106 0.8682590
841.6927 1.153469
842.1749 1.150894
842.6570 0.9367370
843.1391 0.7273180
843.6212 0.5723040
844.1033 0.5080950
844.5854 0.5661390
845.0676 0.7064550
845.5497 0.8310200
846.0318 0.9357070
846.5139 1.047920
846.9960 1.222591
847.4781 1.344017
847.9603 1.306122
848.4424 1.157215
848.9245 1.012939
849.4066 0.8720090
849.8887 0.7599680
850.3708 0.6215630
850.8530 0.5846980
851.3351 0.7757490
851.8172 1.033852
852.2993 1.220657
852.7814 1.315006
853.2635 1.346615
853.7457 1.323044
854.2278 1.267780
854.7099 1.195030
855.1920 1.112953
855.6741 1.015244
856.1563 0.9133530
856.6384 0.9075470
857.1205 1.046890
857.6026 1.223392
858.0847 1.282444
858.5668 1.228832
859.0490 1.235455
859.5311 1.346317
860.0132 1.376640
860.4953 1.179749
860.9774 1.019566
861.4595 1.219936
861.9417 1.650875
862.4238 1.813499
862.9059 1.495193
863.3880 1.279076
863.8701 1.309704
864.3522 1.428844
864.8344 1.572624
865.3165 1.722191
865.7986 1.846939
866.2807 1.945381
866.7628 2.091816
867.2449 2.429901
867.7271 2.781914
868.2092 2.890835
868.6913 2.819710
869.1733 2.698200
869.6555 2.569839
870.1376 2.563801
870.6197 2.791321
871.1018 3.137428
871.5839 3.334663
872.0660 3.378929
872.5482 3.296284
873.0303 3.030167
873.5124 2.810535
873.9945 2.796574
874.4766 2.820381
874.9587 2.590900
875.4409 2.066193
875.9230 1.800102
876.4051 2.085209
876.8872 2.243771
877.3693 2.020924
877.8514 1.702087
878.3336 1.475403
878.8157 1.352928
879.2978 1.299183
879.7799 1.302540
880.2620 1.393394
880.7441 1.740730
881.2263 2.068611
881.7084 1.954048
882.1905 1.538132
882.6726 1.234684
883.1547 1.169155
883.6368 1.198776
884.1190 1.193733
884.6011 1.175907
885.0832 1.249813
885.5653 1.413971
886.0474 1.411373
886.5295 1.180534
887.0117 0.8760150
887.4938 0.5471380
887.9759 0.2743110
888.4580 0.2526780
888.9401 0.5670700
889.4222 0.8094670
889.9044 1.079288
890.3865 1.131847
890.8686 0.6934780
891.3507 0.1878240
891.8328 7.9119997E-03
892.3149 0.1394540
892.7971 0.2712250
893.2792 0.3527950
893.7613 0.3814740
894.2434 0.2670100
894.7255 0.1804160
895.2076 0.3549770
895.6898 0.6774750
896.1719 0.8374370
896.6540 0.7415730
897.1361 0.6102100
897.6182 0.6966820
898.1003 0.8540000
898.5825 0.7449340
899.0646 0.4552460
899.5467 0.3595770
900.0288 0.5279690
900.5109 0.7256770
900.9930 0.7852330
901.4752 0.7493520
901.9573 0.7291370
902.4394 0.7366520
902.9215 0.6533240
903.4036 0.4527020
903.8857 0.2251630
904.3679 5.0785001E-02
904.8500 0.2521780
905.3321 0.1829380
905.8142 0.1679690
906.2963 0.4500470
906.7784 0.6786310
907.2606 0.8211560
907.7427 0.8999100
908.2248 0.8661730
908.7069 0.5341870
909.1890 0.1183010
909.6711 6.2546000E-02
910.1533 0.4943050
910.6354 0.8710140
911.1175 0.9136280
911.5996 0.7834170
912.0817 0.5227430
912.5638 0.2442700
913.0460 0.1264230
913.5281 0.1813240
914.0102 0.2726860
914.4923 0.2921520
914.9744 0.2904010
915.4565 0.4449920
915.9387 0.7031670
916.4208 0.8289790
916.9029 0.8150980
917.3850 0.7698140
917.8671 0.7332840
918.3492 0.7108080
918.8314 0.7099490
919.3135 0.7194290
919.7956 0.6681520
920.2777 0.5128440
920.7598 0.4873240
921.2419 0.6867560
921.7241 0.8899190
922.2062 0.9505770
922.6883 0.9257700
923.1704 0.9610750
923.6525 1.091248
924.1346 1.154442
924.6168 1.107979
925.0989 1.050034
925.5810 0.9702070
926.0631 0.9199300
926.5452 1.004791
927.0273 1.172192
927.5095 1.200722
927.9916 0.9361650
928.4737 0.7310030
928.9558 0.8904720
929.4379 1.106220
929.9200 1.065598
930.4022 0.8549800
930.8843 0.6550480
931.3664 0.5376780
931.8485 0.5368650
932.3306 0.7247850
932.8127 0.9661480
933.2949 1.054039
933.7770 1.025646
934.2591 0.9787560
934.7412 0.9366610
935.2233 0.9653470
935.7054 1.103729
936.1876 1.211681
936.6697 1.014599
937.1518 0.5627560
937.6339 0.4248500
938.1160 0.6405300
938.5981 0.7867890
939.0803 0.7557720
939.5624 0.7236710
940.0445 0.8203890
940.5266 0.9888610
941.0087 1.062420
941.4908 0.9952850
941.9730 1.001266
942.4551 1.181156
942.9372 1.282276
943.4193 1.155689
943.9014 0.9792210
944.3835 0.9106330
944.8657 0.9267350
945.3478 0.9075010
945.8299 0.8088040
946.3120 0.7290690
946.7941 0.6218870
947.2762 0.6103210
947.7584 0.9721110
948.2405 1.372551
948.7226 1.218239
949.2047 0.4980700
949.6868 3.4256000E-02
950.1689 7.7877000E-02
950.6511 0.3967900
951.1332 0.7626990
951.6153 1.027287
952.0974 0.8883740
952.5795 0.4778630
953.0616 0.2158550
953.5438 0.2597960
954.0259 0.4377980
954.5080 0.6519280
954.9901 0.8346940
955.4722 0.7891650
955.9543 0.5907970
956.4365 0.5396350
956.9186 0.6785200
957.4007 0.8636740
957.8828 1.017307
958.3649 1.101925
958.8470 1.010700
959.3292 0.7558250
959.8113 0.6958010
960.2934 0.8736420
960.7755 0.8250350
961.2576 0.3423540
961.7397 0.1058650
962.2219 0.1108590
962.7040 0.2010270
963.1861 0.4401360
963.6682 0.6337740
964.1503 0.6884420
964.6324 0.4943390
965.1146 0.3483200
965.5967 0.4083400
966.0788 0.5169640
966.5609 0.5078740
967.0430 0.3930280
967.5251 0.2609750
968.0073 3.8322002E-02
968.4894 7.3688999E-02
968.9715 6.1794002E-02
969.4536 0.1834830
969.9357 0.1646420
970.4178 4.5203999E-02
970.9000 0.1900750
971.3821 0.5069620
971.8642 0.5990830
972.3463 0.1404080
972.8284 0.2795980
973.3105 0.3825150
973.7927 0.3189130
974.2748 0.1738550
974.7569 1.0303000E-02
975.2390 0.1966020
975.7211 0.3706250
976.2032 0.4975240
976.6854 0.5447770
977.1675 0.5416490
977.6496 0.5126880
978.1317 0.4602130
978.6138 0.3934060
979.0959 0.3051030
979.5781 0.1553340
980.0602 7.2036996E-02
980.5423 0.2750050
981.0244 0.3297350
981.5065 0.2760310
981.9886 0.1863100
982.4708 7.2796002E-02
982.9529 9.0680001E-03
983.4350 2.5859999E-03
983.9171 6.3271001E-02
984.3992 0.2719350
984.8813 0.4977300
985.3635 0.4781610
985.8456 0.2401770
986.3277 0.2196660
986.8098 0.4394650
987.2919 0.4980510
987.7740 0.2652740
988.2562 5.8400002E-04
988.7383 0.1005360
989.2204 6.9885001E-02
989.7025 2.1606000E-02
990.1846 0.2080120
990.6667 0.2561870
991.1489 0.1063540
991.6310 2.9633000E-02
992.1131 0.1292880
992.5952 0.1201970
993.0773 0.1416170
993.5594 0.5636440
994.0416 0.7247960
994.5237 0.4903140
995.0058 0.2818830
995.4879 3.4175999E-02
995.9700 0.1158600
996.4521 1.9370999E-02
996.9343 0.1708680
997.4164 5.4440000E-03
997.8985 0.4069210
998.3806 0.6220660
998.8627 0.4467740
999.3448 0.3511350
999.8270 0.5012660
1000.309 0.6522790
1000.791 0.6561740
1001.273 0.6020200
1001.755 0.6231120
1002.238 0.7113690
1002.720 0.7146870
1003.202 0.4753720
1003.684 0.3481290
1004.166 0.6502490
1004.648 0.9668690
1005.130 0.9662860
1005.612 0.7579690
1006.094 0.4781800
1006.577 0.1918330
1007.059 4.8588000E-02
1007.541 0.1596980
1008.023 0.3610150
1008.505 0.5508800
1008.987 0.7193450
1009.469 0.8839950
1009.951 1.011784
1010.433 1.006435
1010.916 0.8562550
1011.398 0.7140580
1011.880 0.7055630
1012.362 0.7198300
1012.844 0.5433120
1013.326 0.3303180
1013.808 0.3994260
1014.290 0.7106590
1014.773 1.057156
1015.255 1.356651
1015.737 1.601574
1016.219 1.803543
1016.701 1.910851
1017.183 1.715454
1017.665 1.354393
1018.147 1.316372
1018.629 1.603302
1019.112 1.886345
1019.594 2.015240
1020.076 2.057751
1020.558 2.065483
1021.040 2.051449
1021.522 2.092003
1022.004 2.177517
1022.486 2.196171
1022.969 2.137947
1023.451 2.203686
1023.933 2.490070
1024.415 2.835590
1024.897 3.040638
1025.379 3.150509
1025.861 3.428925
1026.343 3.899040
1026.825 4.122765
1027.308 4.018257
1027.790 3.868664
1028.272 3.796204
1028.754 3.743916
1029.236 3.630661
1029.718 3.493359
1030.200 3.584980
1030.682 3.980495
1031.165 4.146797
1031.647 3.956902
1032.129 3.763859
1032.611 3.693802
1033.093 3.752598
1033.575 3.986347
1034.057 4.377354
1034.539 4.628342
1035.021 4.660549
1035.504 4.798767
1035.986 5.158398
1036.468 5.453300
1036.950 5.514015
1037.432 5.492489
1037.914 5.578167
1038.396 5.755054
1038.878 5.932007
1039.360 6.167278
1039.843 6.280563
1040.325 6.075935
1040.807 6.009777
1041.289 6.467884
1041.771 7.024101
1042.253 7.086758
1042.735 6.685986
1043.217 6.507778
1043.700 6.683258
1044.182 6.892361
1044.664 7.229671
1045.146 7.457218
1045.628 7.342693
1046.110 7.180847
1046.592 7.351627
1047.074 7.814686
1047.557 8.121742
1048.039 8.024002
1048.521 8.113441
1049.003 8.674793
1049.485 9.181614
1049.967 9.224857
1050.449 9.208252
1050.931 9.671932
1051.413 10.51707
1051.896 11.11094
1052.378 11.27383
1052.860 11.41012
1053.342 11.44551
1053.824 11.63237
1054.306 12.18397
1054.788 12.87852
1055.270 13.47980
1055.752 14.00141
1056.235 14.63894
1056.717 15.53769
1057.199 16.27050
1057.681 16.45857
1058.163 16.76900
1058.645 17.71444
1059.127 18.81969
1059.609 19.49100
1060.092 19.84724
1060.574 20.46169
1061.056 21.53142
1061.538 22.63022
1062.020 23.55267
1062.502 24.55350
1062.984 25.78244
1063.466 27.14549
1063.948 28.60854
1064.431 30.10945
1064.913 31.44784
1065.395 32.48471
1065.877 33.91864
1066.359 36.33757
1066.841 38.81917
1067.323 40.70738
1067.805 42.56380
1068.287 44.93422
1068.770 47.76189
1069.252 50.78021
1069.734 53.93728
1070.216 57.19526
1070.698 60.05283
1071.180 63.63683
1071.662 68.65305
1072.144 74.57377
1072.627 80.82023
1073.109 87.62939
1073.591 95.32707
1074.073 104.0070
1074.555 114.6319
1075.037 127.7845
1075.519 142.8269
1076.001 159.4778
1076.484 177.7979
1076.966 198.2004
1077.448 220.1179
1077.930 242.9437
1078.412 266.4400
1078.894 290.2189
1079.376 314.1625
1079.858 338.2898
1080.340 362.0157
1080.823 386.5166
1081.305 412.3042
1081.787 439.6922
1082.269 469.0624
1082.751 500.5258
1083.233 534.2083
1083.715 569.4667
1084.197 608.2843
1084.679 653.5862
1085.161 700.4048
1085.644 741.7947
1086.126 784.6113
1086.608 839.6805
1087.090 905.2120
1087.572 969.9752
1088.054 1031.516
1088.536 1088.358
1089.018 1143.877
1089.501 1190.136
1089.983 1226.110
1090.465 1247.218
1090.947 1250.435
1091.429 1234.438
1091.911 1195.347
1092.393 1130.660
1092.875 1055.846
1093.358 971.5105
1093.840 885.0287
1094.322 795.5775
1094.804 708.3515
1095.286 626.0306
1095.768 549.7906
1096.250 481.1606
1096.732 419.8949
1097.214 365.8506
1097.697 319.9553
1098.179 279.7743
1098.661 245.3232
1099.143 215.1104
1099.625 188.8078
1100.107 165.8290
1100.589 145.9883
1101.071 129.0426
1101.553 113.5017
1102.036 98.77283
1102.518 86.05264
1103.000 76.54003
1103.482 68.17884
1103.964 59.77298
1104.446 51.97939
1104.928 45.61500
1105.410 40.64557
1105.893 36.50097
1106.375 33.24987
1106.857 30.25758
1107.339 27.32734
1107.821 24.75228
1108.303 22.80596
1108.785 21.10370
1109.267 19.27219
1109.750 17.45276
1110.232 16.10139
1110.714 15.36972
1111.196 14.47303
1111.678 13.18812
1112.160 11.96132
1112.642 10.78630
1113.124 9.775494
1113.606 9.014206
1114.089 8.480511
1114.571 8.205372
1115.053 8.201122
1115.535 7.885544
1116.017 6.905155
1116.499 6.197067
1116.981 6.046654
1117.463 5.877586
1117.945 5.382107
1118.428 4.780113
1118.910 4.303398
1119.392 3.949688
1119.874 3.702316
1120.356 3.656448
1120.838 3.490601
1121.320 3.025761
1121.802 2.737816
1122.285 2.876144
1122.767 3.073189
1123.249 3.028194
1123.731 2.810680
1124.213 2.594467
1124.695 2.384678
1125.177 2.143101
1125.659 1.835720
1126.141 1.625237
1126.624 1.569927
1127.106 1.524063
1127.588 1.402161
1128.070 1.252720
1128.552 1.153820
1129.034 1.092442
1129.516 0.9304770
1129.998 0.6354750
1130.480 0.5196880
1130.963 0.6344180
1131.445 0.7614630
1131.927 0.8167760
1132.409 0.8687250
1132.891 0.9963800
1133.373 1.140816
1133.855 1.123554
1134.337 0.9537050
1134.820 0.7884450
1135.302 0.6343840
1135.784 0.5504460
1136.266 0.5489350
1136.748 0.5178870
1137.230 0.3828810
1137.712 0.2147060
1138.194 0.1035880
1138.677 5.3420998E-02
1139.159 0.1310650
1139.641 0.2863120
1140.123 0.2594830
1140.605 5.0163001E-02
1141.087 0.1417240
1141.569 0.2319830
1142.051 0.1888500
1142.533 4.9449999E-02
1143.016 0.3617020
1143.498 0.6261220
1143.980 0.7837030
1144.462 0.6516000
1144.944 0.3099400
1145.426 7.4759997E-02
1145.908 0.4104080
1146.390 0.4819070
1146.872 0.1322170
1147.355 0.2365070
1147.837 0.1912190
1148.319 1.3702000E-02
1148.801 0.1365130
1149.283 0.1792910
1149.765 8.5873000E-02
1150.247 6.0557999E-02
1150.729 4.8520002E-03
1151.212 0.3466110
1151.694 0.5789410
1152.176 0.3907390
1152.658 0.1346440
1153.140 1.7159000E-02
1153.622 8.5293002E-02
1154.104 4.5517001E-02
1154.586 4.1625999E-02
1155.068 8.6170003E-02
1155.551 8.6929001E-02
1156.033 0.1145590
1156.515 0.2067150
1156.997 0.2778970
1157.479 0.2866020
1157.961 0.2852330
1158.443 0.2605710
1158.925 0.2701990
1159.407 0.3997730
1159.890 0.5921360
1160.372 0.7374340
1160.854 0.8392370
1161.336 0.7791900
1161.818 0.3073040
1162.300 4.0966000E-02
1162.782 0.2325520
1163.264 0.4134900
1163.747 0.3607180
1164.229 0.2141380
1164.711 0.1292380
1165.193 9.1099001E-02
1165.675 1.6422000E-02
1166.157 0.1189800
1166.639 0.2154120
1167.121 0.2791370
1167.604 0.2824940
1168.086 0.2102850
1168.568 8.8848002E-02
1169.050 8.7585002E-02
1169.532 0.2434730
1170.014 0.2266430
1170.496 6.1714001E-02
1170.978 2.6169000E-02
1171.460 0.1247100
1171.943 0.1321870
1172.425 2.1931000E-02
1172.907 0.1172030
1173.389 0.2531970
1173.871 0.2953680
1174.353 0.1337590
1174.835 7.1594000E-02
1175.317 7.7010997E-02
1175.799 0.4405710
1176.282 0.5513800
1176.764 0.4341320
1177.246 0.1468960
1177.728 0.2214580
1178.210 0.2699050
1178.692 0.1876110
1179.174 0.6406630
1179.656 0.4807590
1180.139 0.1691250
1180.621 0.3315620
1181.103 0.6916470
1181.585 0.8913270
1182.067 0.9320450
1182.549 0.8841210
1183.031 0.7820550
1183.513 0.6827090
1183.995 0.6005940
1184.478 0.5663570
1184.960 0.6375120
1185.442 0.7161100
1185.924 0.6916810
1186.406 0.6800540
1186.888 0.8557620
1187.370 1.124348
1187.852 1.245659
1188.334 1.180019
1188.817 1.145203
1189.299 1.276981
1189.781 1.300179
1190.263 0.9994280
1190.745 0.7854800
1191.227 0.9417080
1191.709 1.185787
1192.191 1.237926
1192.674 1.159473
1193.156 1.158428
1193.638 1.241035
1194.120 1.391216
1194.602 1.676071
1195.084 1.785297
1195.566 1.591980
1196.048 1.489986
1196.531 1.728611
1197.013 2.011353
1197.495 1.945408
1197.977 1.635475
1198.459 1.465340
1198.941 1.428970
1199.423 1.454041
1199.905 1.547195
1200.387 1.838924
1200.870 2.336399
1201.352 2.826672
1201.834 3.185890
1202.316 3.303780
1202.798 2.806583
1203.280 2.174572
1203.762 2.408882
1204.244 3.082909
1204.726 3.408234
1205.209 3.398605
1205.691 3.387978
1206.173 3.456921
1206.655 3.471947
1207.137 3.338352
1207.619 3.250076
1208.101 3.399387
1208.583 3.560291
1209.066 3.515572
1209.548 3.413486
1210.030 3.410980
1210.512 3.520508
1210.994 3.763657
1211.476 4.134651
1211.958 4.341518
1212.440 4.213528
1212.922 4.083591
1213.405 3.957687
1213.887 3.892754
1214.369 3.889935
1214.851 3.975285
1215.333 4.251759
1215.815 4.585732
1216.297 4.597458
1216.779 4.243725
1217.261 4.203941
1217.744 4.560658
1218.226 4.773674
1218.708 4.773525
1219.190 4.592793
1219.672 4.232079
1220.154 4.024288
1220.636 4.313423
1221.118 4.810627
1221.600 4.902737
1222.083 4.689060
1222.565 4.452843
1223.047 4.232582
1223.529 4.163139
1224.011 4.245495
1224.493 4.355679
1224.975 4.448185
1225.457 4.609997
1225.940 4.977936
1226.422 5.279724
1226.904 5.153687
1227.386 4.905384
1227.868 4.853645
1228.350 4.920071
1228.832 4.974716
1229.314 4.957302
1229.797 4.859325
1230.279 4.639736
1230.761 4.567661
1231.243 5.014641
1231.725 5.297600
1232.207 5.020969
1232.689 4.718685
1233.171 4.710144
1233.653 4.779713
1234.135 4.828033
1234.618 4.843815
1235.100 4.843716
1235.582 4.810299
1236.064 4.912266
1236.546 5.212906
1237.028 5.254166
1237.510 4.912022
1237.992 4.675354
1238.475 4.785915
1238.957 4.897026
1239.439 4.639343
1239.921 4.238831
1240.403 4.226818
1240.885 4.486423
1241.367 4.649250
1241.849 4.753983
1242.332 5.021156
1242.814 5.383385
1243.296 5.428856
1243.778 5.027283
1244.260 4.584686
1244.742 4.316063
1245.224 4.181313
1245.706 4.274529
1246.188 4.392296
1246.671 4.371567
1247.153 4.283531
1247.635 4.126556
1248.117 4.006660
1248.599 4.269897
1249.081 5.050896
1249.563 5.425392
1250.045 5.004173
1250.527 4.621017
1251.010 4.207756
1251.492 4.107491
1251.974 4.646652
1252.456 5.172653
1252.938 5.077446
1253.420 4.624069
1253.902 4.405975
1254.384 4.406693
1254.867 4.339340
1255.349 4.213799
1255.831 4.280960
1256.313 4.532394
1256.795 4.475143
1257.277 3.985672
1257.759 3.688919
1258.241 4.061691
1258.724 4.630791
1259.206 4.937523
1259.688 5.013847
1260.170 4.779938
1260.652 4.421898
1261.134 4.188499
1261.616 4.055290
1262.098 3.874969
1262.580 3.646355
1263.063 3.582596
1263.545 3.842117
1264.027 4.031723
1264.509 4.184616
1264.991 4.065285
1265.473 3.209457
1265.955 2.498138
1266.437 2.597771
1266.919 3.019768
1267.402 3.083221
1267.884 2.856903
1268.366 2.774559
1268.848 2.861359
1269.330 2.820801
1269.812 2.636353
1270.294 2.652992
1270.776 2.934631
1271.259 3.025116
1271.741 2.695084
1272.223 2.323799
1272.705 2.306335
1273.187 2.453110
1273.669 2.580559
1274.151 2.604294
1274.633 2.274963
1275.115 1.805733
1275.598 1.605972
1276.080 1.635406
1276.562 1.589691
1277.044 1.389015
1277.526 1.232254
1278.008 1.252579
1278.490 1.234871
1278.972 1.115990
1279.454 0.9607010
1279.937 0.7529980
1280.419 0.5717390
1280.901 0.5080260
1281.383 0.4770810
1281.865 0.2843780
1282.347 4.3159001E-02
1282.829 8.9371003E-02
1283.311 0.1620560
1283.794 0.4632340
1284.276 0.7952190
1284.758 0.6794360
1285.240 0.4169690
1285.722 0.1098180
1286.204 0.0000000E+00
