#Shining_header
#Data type:raman_database
#CAS:Not entered
#Material scientific name:Babingtonite
#Manufacturer:Not entered
#Laser model:Not entered
#Spectrometer model:Not entered
#Testing unit:Not entered
#Test time:Not entered
#Other experimental details:Not entered
#Shining_data
102.6270 0.0000000E+00
103.1091 1.6193001E-02
103.5912 2.6518000E-02
104.0734 0.4922730
104.5555 1.022362
105.0376 1.489653
105.5197 1.872087
106.0018 2.158504
106.4839 2.337265
106.9661 2.395546
107.4482 2.393034
107.9303 2.215363
108.4124 2.064539
108.8945 2.064175
109.3766 2.226374
109.8588 2.476633
110.3409 2.747946
110.8230 3.053558
111.3051 3.303679
111.7872 3.456089
112.2693 3.548357
112.7515 3.629965
113.2336 3.700657
113.7157 3.789728
114.1978 3.914537
114.6799 4.069349
115.1620 4.291300
115.6442 4.653324
116.1263 5.147135
116.6084 5.559332
117.0905 5.792530
117.5726 5.948391
118.0547 6.076385
118.5369 6.199522
119.0190 6.343403
119.5011 6.610134
119.9832 7.025570
120.4653 7.537851
120.9474 8.150038
121.4296 8.832188
121.9117 9.559830
122.3938 10.32215
122.8759 11.12811
123.3580 12.01652
123.8401 12.99803
124.3223 14.06187
124.8044 15.44394
125.2865 16.87916
125.7686 17.99601
126.2507 18.58301
126.7328 18.63988
127.2150 18.21196
127.6971 17.59760
128.1792 16.37782
128.6613 13.96500
129.1434 10.56903
129.6255 7.295610
130.1077 4.956247
130.5898 3.574743
131.0719 2.433552
131.5540 1.538628
132.0361 0.8477690
132.5182 0.3302100
133.0004 4.4669998E-03
133.4825 0.2146280
133.9646 0.3000030
134.4467 0.2977680
134.9288 0.2680720
135.4109 0.2350060
135.8931 0.1942880
136.3752 0.1347620
136.8573 7.3486000E-02
137.3394 3.7601002E-02
137.8215 0.2299400
138.3036 0.4893150
138.7858 0.7707940
139.2679 1.043997
139.7500 1.308744
140.2321 1.566526
140.7142 1.818855
141.1963 2.062906
141.6785 2.354891
142.1606 2.669544
142.6427 2.904606
143.1248 2.919479
143.6069 2.631220
144.0890 2.342997
144.5712 2.067209
145.0533 1.841398
145.5354 1.597403
146.0175 1.374228
146.4996 1.188402
146.9817 1.165955
147.4639 1.370996
147.9460 1.605124
148.4281 1.883125
148.9102 2.186390
149.3923 2.469719
149.8744 2.734997
150.3566 2.986490
150.8387 3.247368
151.3208 3.555685
151.8029 3.797344
152.2850 3.909304
152.7671 3.918283
153.2493 3.912643
153.7314 3.925173
154.2135 3.965427
154.6956 4.029272
155.1777 4.112398
155.6598 4.234835
156.1420 4.426258
156.6241 4.689060
157.1062 4.955130
157.5883 5.219095
158.0704 5.458672
158.5525 5.635180
159.0347 5.721474
159.5168 5.791731
159.9989 5.979954
160.4810 6.364433
160.9631 6.694729
161.4452 6.902756
161.9274 7.036709
162.4095 7.119267
162.8916 7.150248
163.3737 7.169401
163.8558 7.310003
164.3379 7.668535
164.8201 8.034544
165.3022 8.440161
165.7843 8.816441
166.2664 9.054462
166.7485 9.078043
167.2306 8.925606
167.7128 8.928757
168.1949 9.222630
168.6770 9.526688
169.1591 9.857920
169.6412 10.15557
170.1233 10.31132
170.6055 10.24207
171.0876 9.948433
171.5697 9.627113
172.0518 9.217163
172.5339 8.840815
173.0160 8.552881
173.4982 8.351238
173.9803 8.218077
174.4624 8.182472
174.9445 8.221720
175.4266 8.080097
175.9087 7.678549
176.3909 7.150389
176.8730 6.590738
177.3551 6.004032
177.8372 5.389465
178.3193 4.720127
178.8014 4.017883
179.2836 3.372252
179.7657 2.820053
180.2478 2.327265
180.7299 1.822165
181.2120 1.277206
181.6941 0.8047370
182.1763 0.5240780
182.6584 0.3639220
183.1405 0.2055050
183.6226 5.1424000E-02
184.1047 0.3498480
184.5868 0.4839420
185.0690 0.3394050
185.5511 0.1943970
186.0332 0.2033390
186.5153 0.3071170
186.9974 0.3902130
187.4795 0.3635350
187.9617 0.2368660
188.4438 0.1551150
188.9259 0.2778970
189.4080 0.1522850
189.8901 7.3279999E-02
190.3722 3.8359001E-02
190.8544 0.1786900
191.3365 9.8324001E-02
191.8186 0.1118140
192.3007 0.1293160
192.7828 2.0145001E-02
193.2649 0.1422180
193.7471 3.3206999E-02
194.2292 1.4639000E-02
194.7113 4.7104001E-02
195.1934 6.6846997E-02
195.6755 6.9404997E-02
196.1576 0.1591280
196.6398 0.2048450
197.1219 7.5493000E-02
197.6040 0.1716100
198.0861 0.1770020
198.5682 0.1784340
199.0503 0.3055670
199.5325 0.2003840
200.0146 0.3250200
200.4967 0.3574920
200.9788 0.4315610
201.4609 0.4138260
201.9430 0.4235400
202.4252 0.5236680
202.9073 0.5719620
203.3894 0.9232230
203.8715 1.140696
204.3536 1.100008
204.8357 0.9825270
205.3179 0.9430940
205.8000 1.000839
206.2821 1.138247
206.7642 1.383274
207.2463 1.715963
207.7284 2.001835
208.2106 2.168552
208.6927 2.291014
209.1748 2.480906
209.6569 2.764332
210.1390 3.059107
210.6211 3.272621
211.1033 3.439030
211.5854 3.646891
212.0675 3.982716
212.5496 4.377405
213.0317 4.672319
213.5138 4.833952
213.9960 4.945927
214.4781 5.076221
214.9602 5.203127
215.4423 5.276964
215.9244 5.260246
216.4065 5.168554
216.8886 5.055016
217.3708 4.886288
217.8529 4.748238
218.3350 4.665201
218.8171 4.635582
219.2992 4.657759
219.7813 4.742838
220.2635 4.881235
220.7456 5.001986
221.2277 5.037405
221.7098 5.143436
222.1919 5.444717
222.6740 5.841595
223.1562 6.156900
223.6383 6.246370
224.1204 6.135960
224.6025 6.148123
225.0846 6.409023
225.5667 6.672979
226.0489 6.907682
226.5310 7.104498
227.0131 7.243866
227.4952 7.297947
227.9773 7.279701
228.4594 7.416170
228.9416 7.868862
229.4237 8.314528
229.9058 8.691631
230.3879 9.007565
230.8700 9.296766
231.3521 9.591503
231.8343 9.882427
232.3164 10.00570
232.7985 9.928930
233.2806 9.739796
233.7627 9.457043
234.2448 9.074928
234.7270 8.562138
235.2091 7.885242
235.6912 7.069878
236.1733 6.347433
236.6554 5.692698
237.1375 5.122177
237.6197 4.667965
238.1018 4.309155
238.5839 3.988476
239.0660 3.668058
239.5481 3.353691
240.0302 3.104725
240.5124 2.918806
240.9945 2.786808
241.4766 2.712360
241.9587 2.675699
242.4408 2.655090
242.9229 2.651966
243.4051 2.671930
243.8872 2.722012
244.3693 2.803646
244.8514 2.893402
245.3335 2.950916
245.8156 3.013525
246.2978 3.194265
246.7799 3.578083
247.2620 4.059763
247.7441 4.376526
248.2262 4.491022
248.7083 4.530590
249.1905 4.529930
249.6726 4.507090
250.1547 4.559668
250.6368 4.765676
251.1189 5.020201
251.6010 5.181671
252.0832 5.221478
252.5653 5.283714
253.0474 5.471554
253.5295 5.764807
254.0116 5.994116
254.4937 6.053999
254.9759 6.097075
255.4580 6.324993
255.9401 6.739529
256.4222 7.164738
256.9043 7.483368
257.3864 7.711157
257.8686 7.962330
258.3507 8.234715
258.8328 8.565266
259.3149 8.988214
259.7970 9.494637
260.2791 10.00774
260.7613 10.47015
261.2434 10.89374
261.7255 11.34200
262.2076 11.83939
262.6897 12.33411
263.1718 12.80083
263.6540 13.24100
264.1361 13.65944
264.6182 14.06934
265.1003 14.46234
265.5824 14.81520
266.0645 15.18114
266.5467 15.41189
267.0288 15.43824
267.5109 15.29551
267.9930 15.06447
268.4751 14.81913
268.9572 14.52706
269.4394 14.01522
269.9215 13.14899
270.4036 12.24942
270.8857 11.39413
271.3678 10.60078
271.8499 9.906485
272.3321 9.358297
272.8142 8.900593
273.2963 8.325466
273.7784 7.476154
274.2605 6.786425
274.7426 6.430243
275.2248 6.256048
275.7069 6.099403
276.1890 5.887617
276.6711 5.633488
277.1532 5.355499
277.6353 4.974012
278.1175 4.726336
278.5996 4.748007
279.0817 4.855181
279.5638 4.865011
280.0459 4.709591
280.5280 4.473358
281.0102 4.327986
281.4923 4.353388
281.9744 4.300371
282.4565 4.106031
282.9386 3.859020
283.4207 3.624676
283.9029 3.420942
284.3850 3.224966
284.8671 3.002298
285.3492 2.746590
285.8313 2.471815
286.3134 2.170704
286.7956 1.857292
287.2777 1.524691
287.7598 1.180824
288.2419 0.8525490
288.7240 0.5679280
289.2061 0.3303390
289.6883 0.1446480
290.1704 2.4669999E-02
290.6525 6.0559999E-02
291.1346 0.1090680
291.6167 0.1313510
292.0988 0.1529330
292.5810 0.2020440
293.0631 0.2848220
293.5452 0.3282590
294.0273 0.2814390
294.5094 0.2462600
294.9915 0.2813090
295.4737 0.3565500
295.9558 0.4029460
296.4379 0.3693680
296.9200 0.2596550
297.4021 0.1382980
297.8842 5.5930998E-02
298.3664 0.1959440
298.8485 0.1874620
299.3306 0.1201230
299.8127 0.1324310
300.2948 0.3046040
300.7769 0.6002460
301.2591 0.8735200
301.7412 1.187967
302.2233 1.390738
302.7054 1.349913
303.1875 1.236843
303.6696 1.252060
304.1518 1.475359
304.6339 1.814598
305.1160 2.075607
305.5981 2.214718
306.0802 2.327803
306.5623 2.408770
307.0445 2.471941
307.5266 2.516891
308.0087 2.548473
308.4908 2.591496
308.9729 2.682913
309.4550 2.840103
309.9372 3.005970
310.4193 3.150106
310.9014 3.356321
311.3835 3.506393
311.8656 3.602779
312.3477 3.514421
312.8299 3.641897
313.3120 3.668966
313.7941 3.682409
314.2762 3.811872
314.7583 3.699301
315.2404 3.806902
315.7226 3.812710
316.2047 3.850611
316.6868 3.787539
317.1689 3.742626
317.6510 3.778824
318.1331 3.754654
318.6153 3.641285
319.0974 3.622124
319.5795 3.406878
320.0616 3.344976
320.5437 3.343582
321.0258 3.184950
321.5080 3.117582
321.9901 2.906403
322.4722 2.739664
322.9543 2.484007
323.4364 2.211088
323.9185 1.991056
324.4007 1.848713
324.8828 1.754574
325.3649 1.659498
325.8470 1.555147
326.3291 1.467056
326.8112 1.406239
327.2934 1.350815
327.7755 1.276245
328.2576 1.185080
328.7397 1.109213
329.2218 1.092283
329.7039 1.161570
330.1861 1.153635
330.6682 0.9864960
331.1503 0.8307320
331.6324 0.7742900
332.1145 0.7935470
332.5966 0.8083820
333.0788 0.7531570
333.5609 0.6350150
334.0430 0.5769650
334.5251 0.6374950
335.0072 0.6977580
335.4893 0.7525670
335.9715 0.7888030
336.4536 0.7885880
336.9357 0.7424890
337.4178 0.6607590
337.8999 0.5752910
338.3820 0.4820500
338.8642 0.3900390
339.3463 0.2969820
339.8284 0.2065330
340.3105 0.1239240
340.7926 4.9561001E-02
341.2747 2.1442000E-02
341.7568 0.1009860
342.2390 0.2070120
342.7211 0.2744560
343.2032 0.2917350
343.6853 0.2855240
344.1674 0.2685490
344.6495 0.2420100
345.1317 0.2001320
345.6138 0.1338270
346.0959 4.0831000E-02
346.5780 3.9138999E-02
347.0601 8.2455002E-02
347.5422 0.1356580
348.0244 0.2256580
348.5065 0.3308660
348.9886 0.4164680
349.4707 0.4603980
349.9528 0.4717830
350.4349 0.4795420
350.9171 0.4348240
351.3992 0.4675350
351.8813 0.6447890
352.3634 0.8851010
352.8455 1.117607
353.3276 1.316526
353.8098 1.472986
354.2919 1.558475
354.7740 1.539299
355.2561 1.566198
355.7382 1.728743
356.2203 1.880033
356.7025 1.923033
357.1846 1.858953
357.6667 1.768251
358.1488 1.730879
358.6309 1.749916
359.1130 1.744741
359.5952 1.680206
360.0773 1.630898
360.5594 1.645355
361.0415 1.696814
361.5236 1.723595
362.0057 1.668657
362.4879 1.578890
362.9700 1.606171
363.4521 1.796270
363.9342 2.005201
364.4163 2.213148
364.8984 2.399240
365.3806 2.530382
365.8627 2.591084
366.3448 2.633198
366.8269 2.716320
367.3090 2.841127
367.7911 3.005512
368.2733 3.255661
368.7554 3.507996
369.2375 3.688770
369.7196 3.800898
370.2017 3.919827
370.6838 4.132193
371.1660 4.407047
371.6481 4.576809
372.1302 4.564219
372.6123 4.564552
373.0944 4.736282
373.5765 5.017103
374.0587 5.273619
374.5408 5.436655
375.0229 5.559912
375.5050 5.744528
375.9871 6.004784
376.4692 6.195217
376.9514 6.196758
377.4335 6.105164
377.9156 6.058153
378.3977 6.069712
378.8798 6.120899
379.3619 6.210983
379.8441 6.332808
380.3262 6.454821
380.8083 6.567049
381.2904 6.680025
381.7725 6.814301
382.2546 6.968912
382.7368 7.106770
383.2189 7.200065
383.7010 7.276848
384.1831 7.374403
384.6652 7.497452
385.1473 7.641500
385.6295 7.832502
386.1116 8.046006
386.5937 8.155004
387.0758 8.066397
387.5579 7.962956
388.0400 7.980253
388.5222 8.077121
389.0043 8.098701
389.4864 7.958158
389.9685 7.739477
390.4506 7.648771
390.9327 7.720613
391.4149 7.800293
391.8970 7.867217
392.3791 7.910124
392.8612 7.894808
393.3433 7.819447
393.8254 7.759058
394.3076 7.798489
394.7897 7.952296
395.2718 8.109575
395.7539 8.308197
396.2360 8.480558
396.7181 8.568146
397.2003 8.597852
397.6824 8.650442
398.1645 8.778541
398.6466 8.955032
399.1287 9.080137
399.6108 9.137927
400.0930 9.179287
400.5751 9.222762
401.0572 9.249808
401.5393 9.262706
402.0214 9.254639
402.5035 9.170720
402.9857 8.916104
403.4678 8.417790
403.9499 7.961384
404.4320 7.545779
404.9141 7.159729
405.3962 6.821486
405.8784 6.511063
406.3605 6.181007
406.8426 5.798893
407.3247 5.366784
407.8068 4.911593
408.2889 4.395630
408.7711 3.916607
409.2532 3.451752
409.7353 3.050295
410.2174 2.787579
410.6995 2.691107
411.1816 2.660725
411.6638 2.537849
412.1459 2.294596
412.6280 2.113270
413.1101 2.047278
413.5922 2.029666
414.0743 2.028453
414.5565 2.043769
415.0386 2.088093
415.5207 2.178552
416.0028 2.305138
416.4849 2.436039
416.9670 2.578934
417.4492 2.706822
417.9313 2.787494
418.4134 2.850729
418.8955 2.939975
419.3776 3.080582
419.8597 3.214558
420.3419 3.273774
420.8240 3.266960
421.3061 3.272903
421.7882 3.306274
422.2703 3.372061
422.7524 3.475045
423.2346 3.613742
423.7167 3.777526
424.1988 4.012163
424.6809 4.247225
425.1630 4.365751
425.6451 4.355546
426.1273 4.341393
426.6094 4.411185
427.0915 4.555723
427.5736 4.698914
428.0557 4.816822
428.5378 4.958519
429.0200 5.181266
429.5021 5.439909
429.9842 5.629869
430.4663 5.709297
430.9484 5.743917
431.4305 5.846680
431.9127 6.074855
432.3948 6.227875
432.8769 6.307090
433.3590 6.308081
433.8411 6.223953
434.3232 6.057312
434.8054 5.809366
435.2875 5.473083
435.7696 5.059481
436.2517 4.676836
436.7338 4.377708
437.2159 4.046648
437.6981 3.651178
438.1802 3.222772
438.6623 2.774017
439.1444 2.316504
439.6265 1.894493
440.1086 1.595454
440.5908 1.482258
441.0729 1.285590
441.5550 0.8614350
442.0371 0.4836310
442.5192 0.3009560
443.0013 0.2659050
443.4835 0.2414420
443.9656 0.1405010
444.4477 1.1821000E-02
444.9298 0.1378430
445.4119 0.2427340
445.8940 0.3088280
446.3762 0.2617740
446.8583 0.2126820
447.3404 0.2870620
447.8225 0.5115700
448.3046 0.7228350
448.7867 0.7630000
449.2689 0.6603060
449.7510 0.5626890
450.2331 0.4796460
450.7152 0.4234440
451.1973 0.4441950
451.6794 0.5035070
452.1616 0.4927120
452.6437 0.3090230
453.1258 0.1020950
453.6079 2.4906000E-02
454.0900 6.0766000E-02
454.5721 0.1127520
455.0543 0.1607010
455.5364 0.1743760
456.0185 6.1604001E-02
456.5006 0.2247050
456.9827 0.4295730
457.4648 0.4352800
457.9470 0.3649780
458.4291 0.3403050
458.9112 0.3784640
459.3933 0.4509360
459.8754 0.5410720
460.3575 0.6477510
460.8397 0.7222710
461.3218 0.7299910
461.8039 0.7518590
462.2860 0.8175310
462.7681 0.9069240
463.2502 0.9953700
463.7324 1.073489
464.2145 1.141230
464.6966 1.198004
465.1787 1.241570
465.6608 1.279760
466.1429 1.291203
466.6251 1.317678
467.1072 1.388767
467.5893 1.490211
468.0714 1.582584
468.5535 1.634872
469.0356 1.674084
469.5178 1.788888
469.9999 2.016554
470.4820 2.221463
470.9641 2.371516
471.4462 2.484443
471.9283 2.562364
472.4105 2.607798
472.8926 2.643336
473.3747 2.674889
473.8568 2.709216
474.3389 2.780778
474.8210 2.909036
475.3032 3.022509
475.7853 3.044569
476.2674 3.022774
476.7495 3.056895
477.2316 3.216174
477.7137 3.351091
478.1959 3.331605
478.6780 3.203658
479.1601 3.089208
479.6422 3.018906
480.1243 2.999804
480.6064 3.059031
481.0886 3.215318
481.5707 3.320324
482.0528 3.342220
482.5349 3.331048
483.0170 3.308836
483.4991 3.280746
483.9813 3.251887
484.4634 3.224450
484.9455 3.199778
485.4276 3.181777
485.9097 3.177204
486.3918 3.169861
486.8740 3.144695
487.3561 3.127706
487.8382 3.127780
488.3203 3.152550
488.8024 3.221840
489.2845 3.367771
489.7667 3.576797
490.2488 3.706411
490.7309 3.704563
491.2130 3.706771
491.6951 3.723970
492.1772 3.776167
492.6594 3.896962
493.1415 4.094629
493.6236 4.310240
494.1057 4.492216
494.5878 4.641855
495.0699 4.759647
495.5521 4.831294
496.0342 4.898927
496.5163 5.005826
496.9984 5.131963
497.4805 5.229018
497.9626 5.268681
498.4448 5.295184
498.9269 5.367173
499.4090 5.460953
499.8911 5.485331
500.3732 5.401220
500.8553 5.257406
501.3375 5.121626
501.8196 4.998888
502.3017 4.836814
502.7838 4.623531
503.2659 4.377934
503.7480 4.097872
504.2302 3.803671
504.7123 3.520321
505.1944 3.252278
505.6765 2.995764
506.1586 2.771752
506.6407 2.664463
507.1228 2.487144
507.6049 2.163264
508.0871 1.829614
508.5692 1.569736
509.0513 1.384960
509.5334 1.242422
510.0155 1.132508
510.4977 1.056599
510.9798 0.9610140
511.4619 0.7931100
511.9440 0.6916610
512.4261 0.7559260
512.9083 0.8740310
513.3904 0.9615510
513.8725 1.012465
514.3546 1.039438
514.8367 1.009836
515.3188 0.9503640
515.8010 0.9463050
516.2831 1.011333
516.7652 1.104072
517.2473 1.201116
517.7294 1.304542
518.2115 1.417828
518.6937 1.539998
519.1758 1.672490
519.6579 1.801963
520.1400 1.946260
520.6221 2.157359
521.1042 2.445551
521.5864 2.718356
522.0685 2.870416
522.5506 2.888058
523.0327 2.929174
523.5148 2.981075
523.9969 3.066809
524.4791 3.226338
524.9612 3.412472
525.4433 3.548201
525.9254 3.608584
526.4075 3.658572
526.8896 3.805255
527.3718 4.074475
527.8539 4.304931
528.3360 4.496833
528.8181 4.641289
529.3002 4.697192
529.7823 4.710992
530.2645 4.776278
530.7466 4.949943
531.2287 5.138141
531.7108 5.202079
532.1929 5.151333
532.6750 5.137276
533.1572 5.212043
533.6393 5.306271
534.1214 5.334513
534.6035 5.309233
535.0856 5.313555
535.5677 5.422831
536.0499 5.516727
536.5320 5.460581
537.0141 5.309144
537.4962 5.250824
537.9783 5.374852
538.4604 5.563744
538.9426 5.606199
539.4247 5.422665
539.9068 5.291697
540.3889 5.228332
540.8710 5.199065
541.3531 5.213366
541.8353 5.245176
542.3174 5.240808
542.7995 5.168926
543.2816 5.061362
543.7637 4.998405
544.2458 5.008978
544.7280 4.965356
545.2101 4.828696
545.6922 4.648855
546.1743 4.443741
546.6564 4.221219
547.1385 3.992852
547.6207 3.750775
548.1028 3.510195
548.5849 3.290009
549.0670 3.082993
549.5491 2.903354
550.0313 2.772370
550.5134 2.675170
550.9955 2.576885
551.4776 2.468387
551.9597 2.384257
552.4418 2.366847
552.9240 2.360177
553.4061 2.284773
553.8882 2.172567
554.3703 2.142810
554.8524 2.262058
555.3345 2.458985
555.8167 2.564844
556.2988 2.488956
556.7809 2.494321
557.2630 2.612653
557.7451 2.789475
558.2272 3.012863
558.7094 3.256108
559.1915 3.479083
559.6736 3.659734
560.1557 3.823868
560.6378 4.022490
561.1199 4.259720
561.6021 4.494347
562.0842 4.701448
562.5663 4.910604
563.0484 5.167915
563.5305 5.459950
564.0126 5.713569
564.4948 5.849456
564.9769 5.974065
565.4590 6.200405
565.9411 6.512568
566.4232 6.844561
566.9053 7.178247
567.3875 7.495996
567.8696 7.769903
568.3517 7.984797
568.8338 8.205524
569.3159 8.409390
569.7980 8.627834
570.2802 8.890948
570.7623 9.179337
571.2444 9.459791
571.7265 9.715619
572.2086 9.953862
572.6907 10.18954
573.1729 10.43573
573.6550 10.63048
574.1371 10.72247
574.6192 10.81304
575.1013 10.96943
575.5834 11.15552
576.0656 11.29892
576.5477 11.37597
577.0298 11.39330
577.5119 11.35046
577.9940 11.25201
578.4761 11.13235
578.9583 11.01603
579.4404 10.82289
579.9225 10.44614
580.4046 9.894114
580.8867 9.395243
581.3688 8.986940
581.8510 8.599694
582.3331 8.211367
582.8152 7.821743
583.2973 7.429626
583.7794 7.036337
584.2615 6.626960
584.7437 6.180900
585.2258 5.694160
585.7079 5.243809
586.1900 4.840892
586.6721 4.457262
587.1542 4.063833
587.6363 3.696267
588.1184 3.405953
588.6005 3.201250
589.0826 3.019229
589.5648 2.799777
590.0469 2.555765
590.5290 2.333343
591.0111 2.133241
591.4932 1.956685
591.9753 1.802849
592.4575 1.673961
592.9396 1.575841
593.4217 1.525578
593.9038 1.458570
594.3859 1.348741
594.8680 1.216246
595.3502 1.071040
595.8323 0.9219800
596.3144 0.7901040
596.7965 0.6909430
597.2786 0.6215690
597.7607 0.5746550
598.2429 0.5796980
598.7250 0.5525020
599.2071 0.4745680
599.6892 0.3787250
600.1713 0.2718250
600.6534 0.1642550
601.1356 7.7055998E-02
601.6177 2.4411000E-02
602.0998 3.2090000E-03
602.5819 1.2162000E-02
603.0640 2.4490000E-03
603.5461 2.1403000E-02
604.0283 9.5518000E-02
604.5104 0.1806430
604.9925 0.2365260
605.4746 0.2646170
605.9567 0.2500890
606.4388 0.1224670
606.9210 2.0513000E-02
607.4031 6.2270999E-02
607.8852 0.1798170
608.3673 0.2345500
608.8494 0.1851990
609.3315 0.1051910
609.8137 8.9313000E-02
610.2958 0.1451540
610.7779 0.1859300
611.2600 0.2098090
611.7421 0.2194940
612.2242 0.2203330
612.7064 0.2051750
613.1885 0.1482050
613.6706 4.7720999E-02
614.1527 2.4765000E-02
614.6348 2.6402000E-02
615.1169 0.1532990
615.5991 0.1984640
616.0812 0.1449370
616.5633 9.2739999E-02
617.0454 9.6245997E-02
617.5275 0.1323800
618.0096 0.1535750
618.4918 0.1672420
618.9739 0.1472640
619.4560 4.8797000E-02
619.9381 5.4258000E-02
620.4202 9.8803997E-02
620.9023 9.2304997E-02
621.3845 7.0348002E-02
621.8666 5.1126000E-02
622.3487 3.9953001E-02
622.8308 4.7896001E-02
623.3129 7.4015997E-02
623.7950 0.1236530
624.2772 0.2707250
624.7593 0.3647790
625.2414 0.2785590
625.7235 0.1000160
626.2056 6.6010002E-03
626.6877 7.2268002E-02
627.1699 0.2019580
627.6520 0.3403360
628.1341 0.4700160
628.6162 0.5182230
629.0983 0.4652210
629.5804 0.3979520
630.0626 0.3714290
630.5447 0.3895170
631.0268 0.4840330
631.5089 0.7732090
631.9910 0.9685190
632.4731 0.9245340
632.9553 0.8370670
633.4374 0.9096480
633.9195 1.130488
634.4016 1.330652
634.8837 1.377046
635.3658 1.331118
635.8480 1.392433
636.3301 1.598883
636.8122 1.746285
637.2943 1.732449
637.7764 1.707221
638.2585 1.812906
638.7407 2.025786
639.2228 2.237259
639.7049 2.428384
640.1870 2.593054
640.6691 2.678734
641.1512 2.739277
641.6334 2.913782
642.1155 3.237735
642.5976 3.611300
643.0797 3.928503
643.5618 4.189246
644.0439 4.464872
644.5261 4.747195
645.0082 5.057370
645.4903 5.391858
645.9724 5.758508
646.4545 6.192513
646.9366 6.678447
647.4188 7.126550
647.9009 7.426601
648.3830 7.662918
648.8651 8.050716
649.3472 8.593189
649.8293 9.076546
650.3115 9.402626
650.7936 9.683879
651.2757 10.07256
651.7578 10.57500
652.2399 11.04465
652.7220 11.43294
653.2042 11.82818
653.6863 12.29498
654.1684 12.78866
654.6505 13.23600
655.1326 13.61788
655.6147 13.97438
656.0969 14.34773
656.5790 14.73607
657.0611 15.09675
657.5432 15.38387
658.0253 15.73944
658.5074 16.27008
658.9896 16.85452
659.4717 17.43385
659.9538 17.99706
660.4359 18.42424
660.9180 18.56513
661.4001 18.61697
661.8823 18.82733
662.3644 19.13395
662.8465 19.30158
663.3286 19.24004
663.8107 19.04685
664.2928 18.86719
664.7750 18.72190
665.2571 18.42143
665.7392 17.95149
666.2213 17.32842
666.7034 16.49772
667.1855 15.55686
667.6677 14.57445
668.1498 13.56791
668.6319 12.59856
669.1140 11.73657
669.5961 10.94254
670.0782 10.08699
670.5604 9.171333
671.0425 8.369914
671.5246 7.785496
672.0067 7.304115
672.4888 6.749732
672.9709 6.086003
673.4531 5.512156
673.9352 5.091002
674.4173 4.710696
674.8994 4.307789
675.3815 3.916698
675.8636 3.603065
676.3458 3.379803
676.8279 3.174763
677.3100 2.895606
677.7921 2.566094
678.2742 2.358525
678.7563 2.309779
679.2385 2.237479
679.7206 2.062664
680.2027 1.840683
680.6848 1.628976
681.1669 1.425675
681.6490 1.277435
682.1312 1.209864
682.6133 1.187949
683.0954 1.235554
683.5775 1.299538
684.0596 1.267052
684.5417 1.115540
685.0239 0.9264180
685.5060 0.7886910
685.9881 0.7019500
686.4702 0.6443960
686.9523 0.6450640
687.4344 0.6182650
687.9166 0.4925160
688.3987 0.3623530
688.8808 0.3211780
689.3629 0.3655580
689.8450 0.3913850
690.3271 0.3422290
690.8093 0.2643190
691.2914 0.1727710
691.7735 8.9873999E-02
692.2556 0.1057250
692.7377 0.2470460
693.2198 0.3664520
693.7020 0.2813840
694.1841 5.1030000E-03
694.6662 0.1394540
695.1483 1.3741000E-02
695.6304 0.1242120
696.1125 9.2629001E-02
696.5947 3.3930000E-02
697.0768 5.9990000E-02
697.5589 0.1594920
698.0410 0.2179670
698.5231 0.1486100
699.0052 3.5151999E-02
699.4874 2.4800999E-02
699.9695 3.8883001E-02
700.4516 3.8557999E-02
700.9337 3.1737000E-02
701.4158 9.9160001E-03
701.8979 4.3189000E-02
702.3801 0.1230340
702.8622 0.1529730
703.3443 5.9023999E-02
703.8264 1.2707000E-02
704.3085 6.8037003E-02
704.7906 0.1463610
705.2728 0.1936400
705.7549 0.2073530
706.2370 0.2057810
706.7191 0.1943830
707.2012 0.1814370
707.6833 0.1695480
708.1655 0.1636470
708.6476 0.1940450
709.1297 0.2687790
709.6118 0.3666890
710.0939 0.4711970
710.5760 0.5848050
711.0582 0.7216600
711.5403 0.9487780
712.0224 1.103731
712.5045 1.113372
712.9866 1.100407
713.4688 1.142519
713.9509 1.236173
714.4330 1.351417
714.9151 1.476020
715.3972 1.604663
715.8793 1.734411
716.3615 1.863201
716.8436 1.986765
717.3257 2.107084
717.8078 2.201313
718.2899 2.241890
718.7720 2.254160
719.2542 2.308740
719.7363 2.420267
720.2184 2.533453
720.7005 2.646153
721.1826 2.756725
721.6647 2.872317
722.1469 2.983254
722.6290 3.066234
723.1111 3.118126
723.5932 3.170742
724.0753 3.275641
724.5574 3.417587
725.0396 3.505298
725.5217 3.527389
726.0038 3.580898
726.4859 3.723090
726.9680 3.905447
727.4501 4.052731
727.9323 4.165954
728.4144 4.214266
728.8965 4.194260
729.3786 4.115901
729.8607 3.945525
730.3428 3.733084
730.8250 3.552880
731.3071 3.417333
731.7892 3.283189
732.2713 3.120686
732.7534 2.933245
733.2355 2.710949
733.7177 2.446148
734.1998 2.173548
734.6819 1.894505
735.1640 1.643635
735.6461 1.469485
736.1282 1.358623
736.6104 1.211740
737.0925 0.9436450
737.5746 0.7500670
738.0567 0.7346010
738.5388 0.7759220
739.0209 0.7630000
739.5031 0.6930920
739.9852 0.6329130
740.4673 0.6264780
740.9494 0.6483300
741.4315 0.6560210
741.9136 0.6497090
742.3958 0.6417090
742.8779 0.6348710
743.3600 0.6189770
743.8421 0.5732640
744.3242 0.5182180
744.8063 0.5311290
745.2885 0.6706740
745.7706 0.7501680
746.2527 0.7043520
746.7348 0.6433220
747.2169 0.6300730
747.6990 0.6515760
748.1812 0.6773820
748.6633 0.6960660
749.1454 0.7070870
749.6275 0.7058050
750.1096 0.6974960
750.5917 0.7094350
751.0739 0.7440400
751.5560 0.7371700
752.0381 0.6421200
752.5202 0.5394770
753.0023 0.5781670
753.4844 0.7873600
753.9666 0.8875640
754.4487 0.7759270
754.9308 0.6966140
755.4129 0.7401680
755.8950 0.8335310
756.3771 0.9247170
756.8593 0.9889280
757.3414 0.9995270
757.8235 0.9216980
758.3056 0.8019780
758.7877 0.6923650
759.2698 0.5987840
759.7520 0.5540700
760.2341 0.5672140
760.7162 0.6066240
761.1983 0.6568480
761.6804 0.7068100
762.1625 0.6997060
762.6447 0.5614090
763.1268 0.4882520
763.6089 0.5390360
764.0910 0.5982070
764.5731 0.6103360
765.0552 0.5846800
765.5374 0.5457380
766.0195 0.5004170
766.5016 0.4464480
766.9837 0.3722340
767.4658 0.2925340
767.9479 0.2306180
768.4301 0.1869470
768.9122 0.1511000
769.3943 0.1171650
769.8764 0.1026640
770.3585 0.1432490
770.8406 0.2499660
771.3228 0.2934190
771.8049 0.2257050
772.2870 0.1704110
772.7691 0.1683430
773.2512 0.1863080
773.7333 0.2024090
774.2155 0.2134340
774.6976 0.2128840
775.1797 0.1970830
775.6618 0.1703310
776.1439 0.1255070
776.6260 7.5938001E-02
777.1082 3.7303001E-02
777.5903 1.5300000E-02
778.0724 2.6396001E-02
778.5545 8.9727998E-02
779.0366 0.1689630
779.5187 0.1532860
780.0009 1.9917000E-02
780.4830 6.5334000E-02
780.9651 7.3788002E-02
781.4472 5.5457000E-02
781.9293 2.2856999E-02
782.4114 1.1233000E-02
782.8936 2.1942001E-02
783.3757 5.3570000E-03
783.8578 2.2792000E-02
784.3399 8.3939001E-02
784.8220 0.1309950
785.3041 0.1205350
785.7863 7.6890998E-02
786.2684 5.1183999E-02
786.7505 5.4659002E-02
787.2326 4.2938001E-02
787.7147 5.2221000E-02
788.1968 0.1861600
788.6790 0.2000980
789.1611 9.1876999E-02
789.6432 1.4568000E-02
790.1253 9.6694000E-02
790.6074 0.1312600
791.0895 7.3339000E-02
791.5717 6.3441999E-02
792.0538 0.1157780
792.5359 3.0719999E-02
793.0180 9.4901003E-02
793.5001 3.1355001E-02
793.9822 0.1715890
794.4644 0.2143100
794.9465 0.1745570
795.4286 0.1016450
795.9107 6.4949999E-03
796.3928 6.7524001E-02
796.8749 6.7653999E-02
797.3571 2.6263000E-02
797.8392 7.2470000E-03
798.3213 1.0363000E-02
798.8034 6.8790000E-03
799.2855 1.4010000E-02
799.7676 6.3488998E-02
800.2498 0.1709430
800.7319 0.3443410
801.2140 0.4108660
801.6961 0.2977440
802.1782 0.2092290
802.6603 0.2270970
803.1425 0.2667180
803.6246 0.2723670
804.1067 0.2439000
804.5888 0.1919900
805.0709 8.7025002E-02
805.5530 5.5490001E-03
806.0352 2.2910000E-03
806.5173 3.5422001E-02
806.9994 6.7008004E-02
807.4815 8.7111004E-02
807.9636 8.7507002E-02
808.4457 6.3216999E-02
808.9279 2.3945000E-02
809.4100 2.4666000E-02
809.8921 8.0040000E-02
810.3742 9.7516000E-02
810.8563 7.2086997E-02
811.3384 2.0207999E-02
811.8206 7.2351001E-02
812.3027 0.1575430
812.7848 0.1486100
813.2669 2.2562001E-02
813.7490 3.2308999E-02
814.2311 1.5991000E-02
814.7133 9.3042001E-02
815.1954 0.2266200
815.6775 0.3456970
816.1596 0.3777470
816.6417 0.3302970
817.1238 0.2552380
817.6060 0.1546610
818.0881 9.0695001E-02
818.5702 0.1668540
819.0523 0.3178050
819.5344 0.3915200
820.0165 0.3793920
820.4987 0.3751920
820.9808 0.4334340
821.4629 0.5084540
821.9450 0.5096330
822.4271 0.4217070
822.9092 0.3725530
823.3914 0.3867310
823.8735 0.3913460
824.3556 0.3387850
824.8377 0.2817390
825.3198 0.2796450
825.8019 0.3294710
826.2841 0.3768570
826.7662 0.4054220
827.2483 0.4365240
827.7304 0.5133240
828.2125 0.5742510
828.6946 0.5208150
829.1768 0.3838820
829.6589 0.2970900
830.1410 0.3378400
830.6231 0.4180660
831.1052 0.3943890
831.5873 0.3058690
832.0695 0.3382060
832.5516 0.5053260
833.0337 0.6261570
833.5158 0.6136060
833.9979 0.5298020
834.4800 0.4597290
834.9622 0.4014050
835.4443 0.3786870
835.9264 0.4135490
836.4085 0.4520070
836.8906 0.4918060
837.3727 0.5245750
837.8549 0.5472400
838.3370 0.5535290
838.8191 0.5396240
839.3012 0.4924850
839.7833 0.4526420
840.2654 0.4307020
840.7476 0.4334710
841.2297 0.4982860
841.7118 0.5943450
842.1939 0.6219020
842.6760 0.5424000
843.1581 0.3667880
843.6403 0.4910470
844.1224 0.5705950
844.6045 0.6061710
845.0866 0.4676070
845.5687 0.5578710
846.0508 0.5576620
846.5330 0.5537500
847.0151 0.6757750
847.4972 0.5641970
847.9793 0.6778110
848.4614 0.6974050
848.9435 0.7626620
849.4257 0.7418520
849.9078 0.7491460
850.3899 0.8450560
850.8720 0.8866830
851.3541 0.8553840
851.8362 0.9282550
852.3184 0.8150070
852.8005 0.8650790
853.2826 0.9856210
853.7647 0.9585090
854.2468 1.028455
854.7289 1.059823
855.2111 0.9183630
855.6932 1.060326
856.1753 1.111844
856.6574 1.153704
857.1395 1.226656
857.6216 1.329462
858.1038 1.372952
858.5859 1.324416
859.0680 1.313366
859.5501 1.446353
860.0322 1.646524
860.5143 1.724802
860.9965 1.620976
861.4786 1.595393
861.9607 1.696220
862.4428 1.807070
862.9249 1.907557
863.4070 1.998787
863.8892 2.050707
864.3713 2.073831
864.8534 2.173461
865.3355 2.485016
865.8176 2.763782
866.2997 2.822352
866.7819 2.766602
867.2640 2.693985
867.7461 2.636831
868.2282 2.646650
868.7103 2.749959
869.1924 2.892986
869.6746 3.008918
870.1567 3.098588
870.6388 3.170532
871.1209 3.222820
871.6030 3.277150
872.0851 3.348686
872.5673 3.434626
873.0494 3.543207
873.5315 3.666478
874.0136 3.724863
874.4957 3.643349
874.9778 3.631615
875.4600 3.782629
875.9421 3.931551
876.4242 3.993342
876.9063 4.004996
877.3884 4.025016
877.8705 4.057740
878.3527 4.124428
878.8348 4.301871
879.3169 4.442988
879.7990 4.392969
880.2811 4.271167
880.7632 4.257219
881.2454 4.367896
881.7275 4.500757
882.2096 4.594424
882.6917 4.659558
883.1738 4.719165
883.6559 4.762908
884.1381 4.732347
884.6202 4.629801
885.1023 4.583123
885.5844 4.663510
886.0665 4.772943
886.5486 4.746303
887.0308 4.578859
887.5129 4.531940
887.9950 4.664160
888.4771 4.758717
888.9592 4.758028
889.4413 4.710419
889.9235 4.617298
890.4056 4.507292
890.8877 4.495784
891.3698 4.635745
891.8519 4.775282
892.3340 4.967248
892.8162 5.074511
893.2983 4.925047
893.7804 4.684667
894.2625 4.618218
894.7446 4.761857
895.2267 4.898176
895.7089 4.902774
896.1910 4.837533
896.6731 4.737711
897.1552 4.621367
897.6373 4.525834
898.1194 4.451132
898.6016 4.365691
899.0837 4.251295
899.5658 4.121761
900.0479 3.997853
900.5300 3.879316
901.0121 3.765296
901.4943 3.656612
901.9764 3.539390
902.4585 3.413360
902.9406 3.258158
903.4227 3.040260
903.9048 2.772038
904.3870 2.571441
904.8691 2.470090
905.3512 2.372772
905.8333 2.274771
906.3154 2.177280
906.7975 2.090606
907.2797 2.001526
907.7618 1.889275
908.2439 1.751680
908.7260 1.603362
909.2081 1.446591
909.6902 1.282634
910.1724 1.084549
910.6545 0.8999660
911.1366 0.7892870
911.6187 0.7418770
912.1008 0.6948810
912.5829 0.6174870
913.0651 0.5412550
913.5472 0.5108580
914.0293 0.4920540
914.5114 0.4103110
914.9935 0.2856180
915.4756 0.2041200
915.9578 0.1921160
916.4398 0.2022970
916.9219 0.1934690
917.4041 0.1633000
917.8862 9.2726000E-02
918.3683 1.8921999E-02
918.8504 9.6010998E-02
919.3325 0.1213450
919.8146 0.1525690
920.2968 0.2336200
920.7789 0.3217960
921.2610 0.3303130
921.7431 0.2395210
922.2252 0.1944100
922.7073 0.2328160
923.1895 0.2555710
923.6716 0.2285570
924.1537 0.1881930
924.6358 0.1573890
925.1179 0.1347970
925.6000 0.1129860
926.0822 8.3102003E-02
926.5643 7.2830997E-02
927.0464 0.1211150
927.5285 0.1573550
928.0106 0.1184350
928.4927 5.0122000E-02
928.9749 1.6690999E-02
929.4570 2.8334999E-02
929.9391 6.1009999E-02
930.4212 0.1219460
930.9033 0.1668580
931.3854 0.1401660
931.8676 7.7992000E-02
932.3497 4.0782001E-02
932.8318 2.5359999E-02
933.3139 5.1670000E-03
933.7960 6.6967003E-02
934.2781 0.1470160
934.7603 0.2332790
935.2424 0.3241000
935.7245 0.4155170
936.2066 0.5072270
936.6887 0.5969860
937.1708 0.6836970
937.6530 0.7750720
938.1351 0.8810590
938.6172 0.9857630
939.0993 1.039595
939.5814 1.022559
940.0635 1.068204
940.5457 1.191843
941.0278 1.343143
941.5099 1.519459
941.9920 1.696838
942.4741 1.647161
942.9562 1.880304
943.4384 2.067271
943.9205 2.210456
944.4026 2.178860
944.8847 2.373022
945.3668 2.476747
945.8489 2.576762
946.3311 2.802796
946.8132 2.796713
947.2953 3.054693
947.7774 3.147724
948.2595 3.156498
948.7416 3.182744
949.2238 3.257564
949.7059 3.390637
950.1880 3.652242
950.6701 3.972409
951.1522 4.177440
951.6343 4.205117
952.1165 4.178068
952.5986 4.199271
953.0807 4.224168
953.5628 4.165644
954.0449 4.067475
954.5270 4.032294
955.0092 4.077462
955.4913 4.176878
955.9734 4.318781
956.4555 4.467799
956.9376 4.568110
957.4197 4.624198
957.9019 4.649774
958.3840 4.646614
958.8661 4.661168
959.3482 4.708591
959.8303 4.769849
960.3124 4.821946
960.7946 4.880126
961.2767 5.018305
961.7588 5.266613
962.2409 5.433853
962.7230 5.469811
963.2051 5.533052
963.6873 5.716731
964.1694 5.930210
964.6515 6.050388
965.1336 6.077737
965.6157 6.127869
966.0978 6.203682
966.5800 6.297949
967.0621 6.423545
967.5442 6.552144
968.0263 6.669883
968.5084 6.780824
968.9905 6.890730
969.4727 7.000105
969.9548 7.109520
970.4369 7.226165
970.9190 7.332796
971.4011 7.456831
971.8832 7.539166
972.3654 7.489617
972.8475 7.362222
973.3296 7.303403
973.8117 7.364999
974.2938 7.393911
974.7759 7.279850
975.2581 7.117675
975.7402 6.985486
976.2223 6.857903
976.7044 6.696671
977.1865 6.501990
977.6686 6.290154
978.1508 6.064509
978.6329 5.836636
979.1150 5.613039
979.5971 5.412441
980.0792 5.261578
980.5613 5.143804
981.0435 5.028458
981.5256 4.907366
982.0077 4.755994
982.4898 4.541836
982.9719 4.341050
983.4540 4.331861
983.9362 4.479176
984.4183 4.573417
984.9004 4.600317
985.3825 4.612960
985.8646 4.630539
986.3467 4.693066
986.8289 4.848346
987.3110 5.061584
987.7931 5.182667
988.2752 5.185952
988.7573 5.304638
989.2394 5.597816
989.7216 5.874856
990.2037 6.050889
990.6858 6.160736
991.1679 6.233351
991.6500 6.273349
992.1321 6.401650
992.6143 6.699307
993.0964 6.893358
993.5785 6.867086
994.0606 6.869637
994.5427 7.031626
995.0248 7.293117
995.5070 7.583996
995.9891 7.908728
996.4712 8.185340
996.9533 8.445089
997.4354 8.608942
997.9175 8.564186
998.3997 8.522376
998.8818 8.610489
999.3639 8.787823
999.8460 9.015316
1000.328 9.298351
1000.810 9.427607
1001.292 9.200601
1001.774 9.005004
1002.257 9.052938
1002.739 9.142964
1003.221 9.113581
1003.703 8.980055
1004.185 8.809431
1004.667 8.618468
1005.149 8.401064
1005.631 8.121138
1006.114 7.850964
1006.596 7.674090
1007.078 7.513323
1007.560 7.256338
1008.042 6.923775
1008.524 6.627120
1009.006 6.412246
1009.488 6.212613
1009.970 5.974241
1010.453 5.730759
1010.935 5.505583
1011.417 5.305667
1011.899 5.160953
1012.381 5.061809
1012.863 4.948190
1013.345 4.786316
1013.827 4.602538
1014.310 4.410547
1014.792 4.227229
1015.274 4.085327
1015.756 3.983781
1016.238 3.919627
1016.720 3.876011
1017.202 3.790451
1017.684 3.627467
1018.166 3.462515
1018.649 3.421016
1019.131 3.461503
1019.613 3.434086
1020.095 3.339750
1020.577 3.227662
1021.059 3.113918
1021.541 2.996053
1022.023 2.864923
1022.505 2.722558
1022.988 2.567439
1023.470 2.406021
1023.952 2.332057
1024.434 2.348491
1024.916 2.383619
1025.398 2.417718
1025.880 2.420804
1026.362 2.362515
1026.845 2.278238
1027.327 2.255095
1027.809 2.294086
1028.291 2.329600
1028.773 2.366379
1029.255 2.376044
1029.737 2.335614
1030.219 2.320150
1030.702 2.404421
1031.184 2.539098
1031.666 2.582374
1032.148 2.515883
1032.630 2.456426
1033.112 2.399832
1033.594 2.364283
1034.076 2.364706
1034.558 2.368467
1035.041 2.348810
1035.523 2.311590
1036.005 2.274273
1036.487 2.236239
1036.969 2.197118
1037.451 2.128929
1037.933 2.116573
1038.415 2.231219
1038.897 2.347487
1039.380 2.365291
1039.862 2.303442
1040.344 2.216075
1040.826 2.073088
1041.308 1.996061
1041.790 2.065284
1042.272 2.084687
1042.754 1.951127
1043.237 1.801050
1043.719 1.745186
1044.201 1.756829
1044.683 1.762512
1045.165 1.767177
1045.647 1.747134
1046.129 1.683497
1046.611 1.619166
1047.094 1.536601
1047.576 1.483182
1048.058 1.522154
1048.540 1.615813
1049.022 1.660242
1049.504 1.634356
1049.986 1.611119
1050.468 1.591726
1050.950 1.587059
1051.432 1.627356
1051.915 1.659414
1052.397 1.624718
1052.879 1.551068
1053.361 1.504416
1053.843 1.491288
1054.325 1.519303
1054.807 1.679816
1055.289 1.765268
1055.772 1.640378
1056.254 1.464978
1056.736 1.371235
1057.218 1.330065
1057.700 1.258361
1058.182 1.141191
1058.664 1.004415
1059.146 0.8154640
1059.629 0.6590630
1060.111 0.6008940
1060.593 0.5598600
1061.075 0.4364130
1061.557 0.2876780
1062.039 0.2610790
1062.521 0.3889370
1063.003 0.4583590
1063.485 0.3737910
1063.968 0.2469950
1064.450 5.0136998E-02
1064.932 9.8881997E-02
1065.414 4.5474000E-02
1065.896 0.1052250
1066.378 0.1415290
1066.860 2.7911000E-02
1067.342 7.2816998E-02
1067.824 0.1003500
1068.307 9.7388998E-02
1068.789 4.7104999E-02
1069.271 7.4479999E-03
1069.753 4.9362000E-02
1070.235 0.1295780
1070.717 0.1734810
1071.199 0.1699600
1071.681 0.1599290
1072.164 0.1493030
1072.646 0.1527560
1073.128 0.2132300
1073.610 0.2549690
1074.092 0.1792510
1074.574 6.3607998E-02
1075.056 2.7530000E-02
1075.538 8.0261998E-02
1076.021 0.1368160
1076.503 0.1764030
1076.985 0.1859680
1077.467 0.1267910
1077.949 6.8402998E-02
1078.431 8.8018999E-02
1078.913 0.1271850
1079.395 8.3550997E-02
1079.877 3.1870000E-02
1080.359 0.1058040
1080.842 9.0772003E-02
1081.324 5.6593999E-02
1081.806 1.1380001E-03
1082.288 3.4038998E-02
1082.770 1.1161000E-02
1083.252 7.7477001E-02
1083.734 7.7133998E-02
1084.216 2.0230001E-02
1084.698 1.1635000E-02
1085.181 1.2486000E-02
1085.663 3.8123000E-02
1086.145 2.2198999E-02
1086.627 2.1561000E-02
1087.109 9.0129003E-02
1087.591 0.1783890
1088.073 0.2466570
1088.555 0.2806080
1089.038 0.2630750
1089.520 0.1865350
1090.002 0.1432600
1090.484 0.2050990
1090.966 0.2679350
1091.448 0.2723530
1091.930 0.2574520
1092.412 0.2353570
1092.895 0.2324470
1093.377 0.3150660
1093.859 0.4960320
1094.341 0.6193800
1094.823 0.5580810
1095.305 0.5210920
1095.787 0.6204450
1096.269 0.7524390
1096.751 0.8407380
1097.234 0.9051130
1097.716 0.9902220
1098.198 1.098928
1098.680 1.189648
1099.162 1.253571
1099.644 1.292903
1100.126 1.271403
1100.608 1.265509
1101.090 1.368011
1101.573 1.483916
1102.055 1.457737
1102.537 1.318996
1103.019 1.287761
1103.501 1.464781
1103.983 1.608248
1104.465 1.674452
1104.947 1.686088
1105.430 1.595624
1105.912 1.496998
1106.394 1.505173
1106.876 1.589397
1107.358 1.633999
1107.840 1.613344
1108.322 1.595021
1108.804 1.595802
1109.286 1.590767
1109.769 1.560507
1110.251 1.533858
1110.733 1.545902
1111.215 1.573104
1111.697 1.576161
1112.179 1.558100
1112.661 1.467076
1113.143 1.202676
1113.625 1.009492
1114.108 0.9742450
1114.590 0.9582270
1115.072 0.8881950
1115.554 0.7942530
1116.036 0.7115850
1116.518 0.6405140
1117.000 0.5965240
1117.482 0.6103330
1117.965 0.5936770
1118.447 0.4968030
1118.929 0.4425020
1119.411 0.5224180
1119.893 0.6106200
1120.375 0.5677360
1120.857 0.4279080
1121.339 0.3384740
1121.822 0.3062990
1122.304 0.2127590
1122.786 0.3093840
1123.268 0.3619080
1123.750 0.3718130
1124.232 0.2068140
1124.714 0.2674350
1125.196 0.2349140
1125.678 0.1971550
1126.161 0.2853370
1126.643 0.1439670
1127.125 0.2341990
1127.607 0.2310540
1128.089 0.2653190
1128.571 0.2055270
1129.053 0.1737660
1129.535 0.2334070
1130.017 0.2431170
1130.500 0.1731720
1130.982 0.2034500
1131.464 4.4810001E-02
1131.946 8.1555001E-02
1132.428 5.3412002E-02
1132.910 7.3000997E-02
1133.392 0.1659570
1133.874 0.2446950
1134.357 0.2258810
1134.839 0.1478140
1135.321 9.7299002E-02
1135.803 7.3694997E-02
1136.285 7.5634003E-02
1136.767 9.8410003E-02
1137.249 0.1001550
1137.731 7.3238999E-02
1138.214 2.3212001E-02
1138.696 4.6266001E-02
1139.178 9.5991001E-02
1139.660 4.9306002E-02
1140.142 4.9856000E-02
1140.624 5.9836000E-02
1141.106 1.1116000E-02
1141.588 3.6152001E-02
1142.070 0.1311220
1142.552 0.1765530
1143.035 0.1313620
1143.517 7.0664003E-02
1143.999 6.4255998E-02
1144.481 7.1544997E-02
1144.963 9.0849996E-03
1145.445 6.9490999E-02
1145.927 4.6696998E-02
1146.409 4.4918001E-02
1146.892 0.1081360
1147.374 0.1217350
1147.856 0.1119010
1148.338 8.5176997E-02
1148.820 8.0623999E-02
1149.302 0.1747140
1149.784 0.2687010
1150.266 0.2451310
1150.749 0.1617430
1151.231 8.4458999E-02
1151.713 3.4495000E-02
1152.195 3.9484002E-02
1152.677 0.1080990
1153.159 0.1806670
1153.641 0.2563510
1154.123 0.2872830
1154.605 0.2039260
1155.088 0.1043600
1155.570 7.1999997E-02
1156.052 8.2240000E-02
1156.534 8.6792000E-02
1157.016 8.1462003E-02
1157.498 9.4731003E-02
1157.980 0.1645220
1158.462 0.1892640
1158.944 0.1046780
1159.427 1.9173000E-02
1159.909 3.8938001E-02
1160.391 5.9092999E-02
1160.873 3.6500001E-04
1161.355 0.1003980
1161.837 0.1167910
1162.319 7.9929996E-03
1162.801 2.3147000E-02
1163.284 9.9651001E-02
1163.766 0.1762330
1164.248 0.1581090
1164.730 0.1170450
1165.212 7.7797003E-02
1165.694 5.0282001E-02
1166.176 5.1955000E-02
1166.658 7.9189003E-02
1167.141 9.9275000E-02
1167.623 0.1122110
1168.105 0.1132090
1168.587 9.3149997E-02
1169.069 0.1065620
1169.551 0.1845440
1170.033 0.2395290
1170.515 0.1929140
1170.997 0.1015690
1171.479 9.0760000E-02
1171.962 0.1526420
1172.444 0.1920270
1172.926 0.2092180
1173.408 0.2047600
1173.890 0.1799600
1174.372 0.1609430
1174.854 0.1598440
1175.336 0.1573190
1175.819 0.1289280
1176.301 9.3359001E-02
1176.783 8.7176003E-02
1177.265 0.1050180
1177.747 0.1469070
1178.229 0.1988680
1178.711 0.2139510
1179.193 0.1863990
1179.676 0.1593820
1180.158 0.1606940
1180.640 0.1736040
1181.122 0.1826180
1181.604 0.1916190
1182.086 0.2121090
1182.568 0.2304900
1183.050 0.2245930
1183.532 0.1979470
1184.015 0.1575310
1184.497 0.1059870
1184.979 8.1546001E-02
1185.461 0.1130700
1185.943 0.1512290
1186.425 0.1775590
1186.907 0.1974690
1187.389 0.2084790
1187.871 0.2202120
1188.354 0.2499490
1188.836 0.2909260
1189.318 0.3116000
1189.800 0.3110440
1190.282 0.2965100
1190.764 0.2574820
1191.246 0.2250030
1191.728 0.1908150
1192.211 0.1808970
1192.693 0.2326640
1193.175 0.2920750
1193.657 0.2708020
1194.139 0.1851800
1194.621 0.1953080
1195.103 0.3379850
1195.585 0.3931610
1196.068 0.3409680
1196.550 0.2396830
1197.032 9.1420002E-02
1197.514 1.4400000E-03
1197.996 5.2926000E-02
1198.478 0.1683870
1198.960 0.2234000
1199.442 0.2281410
1199.924 0.2221000
1200.406 0.2065200
1200.889 0.1852330
1201.371 0.1639970
1201.853 0.1890020
1202.335 0.2713840
1202.817 0.3336270
1203.299 0.3104290
1203.781 0.2455880
1204.263 0.1683280
1204.746 0.1012720
1205.228 8.4420003E-02
1205.710 0.1070990
1206.192 0.1721920
1206.674 0.2528930
1207.156 0.2643730
1207.638 0.1776600
1208.120 0.1133070
1208.603 0.1761050
1209.085 0.2307810
1209.567 0.1787620
1210.049 0.1180040
1210.531 0.1348860
1211.013 0.1827660
1211.495 0.1871290
1211.977 0.1553300
1212.459 0.1600860
1212.942 0.2363320
1213.424 0.2715360
1213.906 0.2116120
1214.388 0.1807530
1214.870 0.2282200
1215.352 0.2687070
1215.834 0.2430580
1216.316 0.1981940
1216.798 0.1986780
1217.281 0.2379890
1217.763 0.2736210
1218.245 0.3113240
1218.727 0.3179480
1219.209 0.2874680
1219.691 0.2511370
1220.173 0.2155600
1220.655 0.1967800
1221.138 0.2131810
1221.620 0.2346170
1222.102 0.2149010
1222.584 0.1747630
1223.066 0.1858650
1223.548 0.2171320
1224.030 0.1594990
1224.512 4.1747998E-02
1224.995 2.0500000E-04
1225.477 5.9255000E-02
1225.959 0.1216820
1226.441 0.1333870
1226.923 0.1250950
1227.405 0.1182750
1227.887 0.1108700
1228.369 7.7324003E-02
1228.851 6.1358001E-02
1229.333 0.1494950
1229.816 0.2801340
1230.298 0.3061320
1230.780 0.2088290
1231.262 0.1425400
1231.744 0.1553850
1232.226 0.1812790
1232.708 0.2579800
1233.190 0.2815990
1233.673 0.1728380
1234.155 5.4818999E-02
1234.637 2.9053999E-02
1235.119 5.2308001E-02
1235.601 2.8571000E-02
1236.083 4.2151999E-02
1236.565 4.6512000E-02
1237.047 2.5107000E-02
1237.530 9.2189997E-02
1238.012 0.1484100
1238.494 0.1702320
1238.976 0.1479540
1239.458 0.1245520
1239.940 0.1345890
1240.422 0.1539020
1240.904 0.1171390
1241.386 6.4108998E-02
1241.869 0.1233780
1242.351 0.2373000
1242.833 0.2571570
1243.315 0.1940000
1243.797 0.1336950
1244.279 0.1091340
1244.761 0.1371690
1245.243 0.2500720
1245.725 0.3574730
1246.208 0.4068190
1246.690 0.4227280
1247.172 0.4163920
1247.654 0.3901930
1248.136 0.3304970
1248.618 0.2568600
1249.100 0.2146220
1249.582 0.2100250
1250.065 0.1941450
1250.547 0.1681650
1251.029 0.1202630
1251.511 1.8426999E-02
1251.993 3.7994999E-02
1252.475 8.0789998E-03
1252.957 5.5080000E-02
1253.439 0.1120520
1253.922 0.1722910
1254.404 0.2755130
1254.886 0.3971900
1255.368 0.3365570
1255.850 0.1245160
1256.332 5.4651000E-02
1256.814 0.1339720
1257.296 0.1968970
1257.778 0.1938680
1258.260 0.1756590
1258.743 0.1757360
1259.225 0.1597620
1259.707 7.6777004E-02
1260.189 7.7899999E-04
1260.671 9.4020003E-03
1261.153 2.7735000E-02
1261.635 0.1303140
1262.117 0.2407650
1262.600 0.2390560
1263.082 0.1255640
1263.564 4.3490998E-02
1264.046 2.2789000E-02
1264.528 5.3970002E-02
1265.010 0.2346340
1265.492 0.3241070
1265.974 0.1555950
1266.457 8.7430002E-03
1266.939 7.2420001E-02
1267.421 0.2023660
1267.903 0.2394420
1268.385 0.1878670
1268.867 0.1223930
1269.349 3.9305001E-02
1269.831 1.8499000E-02
1270.313 6.0950000E-02
1270.796 0.1008300
1271.278 0.1214790
1271.760 0.1119590
1272.242 7.5240001E-02
1272.724 3.2099001E-02
1273.206 2.0079999E-03
1273.688 1.1410000E-02
1274.170 9.5700001E-04
1274.652 1.8622000E-02
1275.135 4.0633999E-02
1275.617 5.7365999E-02
1276.099 4.9984999E-02
1276.581 3.3482000E-02
1277.063 5.7273000E-02
1277.545 0.1377720
1278.027 0.1634150
1278.509 8.3641998E-02
1278.992 3.9131001E-02
1279.474 9.8663002E-02
1279.956 0.1355820
1280.438 7.9648003E-02
1280.920 9.4170002E-03
1281.402 1.4900000E-04
1281.884 0.0000000E+00
