#Shining_header
#Data type:raman_database
#CAS:Not entered
#Material scientific name:Steacyite
#Manufacturer:Not entered
#Laser model:Not entered
#Spectrometer model:Not entered
#Testing unit:Not entered
#Test time:Not entered
#Other experimental details:Not entered
#Shining_data
102.7704 0.0000000E+00
103.2525 0.6441800
103.7346 0.5168760
104.2167 1.7975001E-02
104.6988 6.8210000E-03
105.1810 0.4421540
105.6631 1.082245
106.1452 1.788010
106.6273 2.616516
107.1094 3.091080
107.5915 2.415710
108.0737 1.689255
108.5558 1.400482
109.0379 1.437149
109.5200 1.468307
110.0021 1.081421
110.4842 0.1603090
110.9664 7.5409003E-02
111.4485 0.7142030
111.9306 1.614197
112.4127 2.336166
112.8948 2.881821
113.3769 3.324829
113.8591 3.770447
114.3412 4.160416
114.8233 4.476273
115.3054 4.740509
115.7875 4.982361
116.2696 5.280029
116.7517 5.699860
117.2339 6.117828
117.7160 6.195206
118.1981 5.648575
118.6802 5.282471
119.1623 5.328735
119.6444 5.722351
120.1266 6.352829
120.6087 7.372162
121.0908 8.484650
121.5729 9.126144
122.0550 9.175369
122.5371 9.024429
123.0193 8.816116
123.5014 8.526779
123.9835 8.269882
124.4656 7.841751
124.9477 7.466278
125.4298 7.458008
125.9120 8.054871
126.3941 8.907211
126.8762 9.396271
127.3583 9.370773
127.8404 9.315643
128.3225 9.408096
128.8047 9.561295
129.2868 9.651474
129.7689 9.521790
130.2510 9.420288
130.7331 9.478027
131.2152 9.501068
131.6974 9.636459
132.1795 9.578094
132.6616 9.182678
133.1437 8.592575
133.6258 8.508911
134.1079 8.809616
134.5901 9.030716
135.0722 9.291763
135.5543 9.507126
136.0364 9.761963
136.5185 10.04437
137.0006 10.18298
137.4828 10.04036
137.9649 9.514679
138.4470 8.990906
138.9291 8.450027
139.4112 7.990158
139.8933 7.741135
140.3755 7.797195
140.8576 7.840424
141.3397 7.262512
141.8218 6.107437
142.3039 5.219421
142.7860 5.199661
143.2681 5.785934
143.7503 5.999237
144.2324 5.386688
144.7145 4.616486
145.1966 4.318390
145.6787 4.494751
146.1608 4.746338
146.6430 4.774918
147.1251 4.576141
147.6072 4.231232
148.0893 3.443710
148.5714 2.700058
149.0535 2.310501
149.5357 2.335739
150.0178 2.558029
150.4999 2.665558
150.9820 2.625381
151.4641 2.531204
151.9462 2.348953
152.4284 2.152328
152.9105 2.004578
153.3926 1.938797
153.8747 1.900375
154.3568 1.738602
154.8389 1.245789
155.3211 0.8770140
155.8032 0.8219600
156.2853 0.8520660
156.7674 0.6348270
157.2495 1.5853999E-02
157.7316 0.9341740
158.2138 1.390686
158.6959 0.8768310
159.1780 0.5424190
159.6601 0.7706760
160.1422 1.394470
160.6243 1.679779
161.1065 1.859100
161.5886 1.883636
162.0707 1.618988
162.5528 0.6607970
163.0349 0.1925200
163.5170 0.3417210
163.9991 0.1419680
164.4813 0.5531460
164.9634 0.3956760
165.4455 0.1372380
165.9276 0.5554500
166.4097 0.7343440
166.8918 0.8428040
167.3740 1.117371
167.8561 1.614700
168.3382 1.992920
168.8203 1.904724
169.3024 1.632187
169.7845 1.503265
170.2667 1.696625
170.7488 2.071564
171.2309 2.275772
171.7130 2.142105
172.1951 2.152351
172.6772 2.503815
173.1594 3.085823
173.6415 3.774986
174.1236 4.561852
174.6057 5.387947
175.0878 5.874939
175.5699 5.624695
176.0521 5.466019
176.5342 5.731079
177.0163 6.242119
177.4984 6.667183
177.9805 6.751381
178.4626 6.492836
178.9448 6.317055
179.4269 6.181763
179.9090 6.161163
180.3911 6.340851
180.8732 6.666702
181.3553 7.007263
181.8375 7.244629
182.3196 7.358238
182.8017 7.566536
183.2838 7.926498
183.7659 8.308189
184.2480 8.685608
184.7301 9.036697
185.2123 9.314842
185.6944 9.483170
186.1765 9.529099
186.6586 9.450630
187.1407 9.081833
187.6228 8.709366
188.1050 8.555618
188.5871 8.641434
189.0692 8.826683
189.5513 9.012520
190.0334 9.192848
190.5155 9.288368
190.9977 9.164078
191.4798 9.012520
191.9619 9.092323
192.4440 9.469231
192.9261 9.890877
193.4082 10.14339
193.8904 10.25620
194.3725 10.25159
194.8546 10.08289
195.3367 9.808472
195.8188 9.513664
196.3009 9.152229
196.7831 8.896469
197.2652 8.916542
197.7473 9.135696
198.2294 9.371910
198.7115 9.506783
199.1936 9.570099
199.6758 9.718201
200.1579 10.04018
200.6400 10.34123
201.1221 10.42061
201.6042 10.38277
202.0863 10.49272
202.5685 11.06769
203.0506 12.06527
203.5327 12.66621
204.0148 12.52100
204.4969 12.29991
204.9790 12.26879
205.4612 12.37080
205.9433 12.42526
206.4254 12.26896
206.9075 11.89013
207.3896 11.59967
207.8717 11.50514
208.3539 11.40987
208.8360 11.21550
209.3181 10.95790
209.8002 10.74404
210.2823 10.67900
210.7644 10.78370
211.2466 10.86003
211.7287 10.89835
212.2108 10.92012
212.6929 10.87904
213.1750 10.81236
213.6571 10.85480
214.1393 11.18125
214.6214 11.91039
215.1035 11.94173
215.5856 10.73153
216.0677 9.438828
216.5498 8.672943
217.0320 8.417435
217.5141 8.332031
217.9962 8.142502
218.4783 7.864784
218.9604 7.450989
219.4425 6.594849
219.9247 5.895599
220.4068 5.899384
220.8889 6.541718
221.3710 7.191116
221.8531 7.313370
222.3352 6.855591
222.8174 6.427490
223.2995 6.059525
223.7816 5.718323
224.2637 5.390030
224.7458 5.070755
225.2279 4.755814
225.7100 4.463837
226.1922 4.174728
226.6743 3.784134
227.1564 3.090500
227.6385 2.412277
228.1206 2.057617
228.6027 2.047485
229.0849 2.216873
229.5670 2.613449
230.0491 3.095154
230.5312 3.265015
231.0133 2.709976
231.4954 2.009064
231.9776 1.904510
232.4597 2.484573
232.9418 3.038910
233.4239 2.973511
233.9060 2.610245
234.3881 2.435043
234.8703 2.605042
235.3524 2.985489
235.8345 3.454880
236.3166 4.062195
236.7987 4.558670
237.2808 4.738419
237.7630 4.761780
238.2451 4.799942
238.7272 4.927643
239.2093 5.061035
239.6914 5.026459
240.1735 4.742371
240.6557 4.554367
241.1378 4.765182
241.6199 5.064041
242.1020 5.083527
242.5841 4.623596
243.0662 4.071213
243.5484 4.144684
244.0305 5.072327
244.5126 6.011536
244.9947 6.882553
245.4768 7.587158
245.9589 7.976212
246.4410 7.987976
246.9232 7.825760
247.4053 7.859207
247.8874 8.206070
248.3695 8.465652
248.8516 8.475891
249.3337 8.433350
249.8159 8.504166
250.2980 8.737732
250.7801 9.031448
251.2622 9.235916
251.7443 9.385590
252.2264 9.340164
252.7086 8.805649
253.1907 8.283371
253.6728 8.075516
254.1549 8.277573
254.6370 8.858902
255.1191 9.935349
255.6013 12.22780
256.0834 13.37723
256.5655 12.65480
257.0476 11.50626
257.5297 10.81396
258.0118 10.76505
258.4940 11.03629
258.9761 11.21249
259.4582 11.28838
259.9403 11.26752
260.4224 11.06180
260.9045 10.85422
261.3867 10.75453
261.8688 10.77287
262.3509 10.84354
262.8330 10.88812
263.3151 10.87767
263.7972 10.95561
264.2794 11.21213
264.7615 11.46364
265.2436 11.59822
265.7257 11.61998
266.2078 11.61400
266.6899 11.67323
267.1721 11.82715
267.6542 11.83525
268.1363 11.61281
268.6184 11.35443
269.1005 11.17331
269.5826 11.07262
270.0648 10.96130
270.5469 10.75264
271.0290 10.42366
271.5111 10.19077
271.9932 10.23517
272.4753 10.17876
272.9575 9.764542
273.4396 9.121338
273.9217 8.581650
274.4038 8.370850
274.8859 8.466812
275.3680 8.627243
275.8501 9.140991
276.3322 9.386032
276.8144 8.982025
277.2965 8.135406
277.7786 7.300735
278.2607 6.719162
278.7428 6.360535
279.2249 6.092743
279.7071 5.978622
280.1892 5.857330
280.6713 5.669891
281.1534 5.444839
281.6355 5.255936
282.1176 5.151917
282.5998 5.065811
283.0819 4.761856
283.5640 3.836655
284.0461 3.441803
284.5282 4.427658
285.0103 5.915482
285.4925 6.493866
285.9746 5.629028
286.4567 4.133179
286.9388 3.437302
287.4209 3.774414
287.9030 4.062820
288.3852 4.064117
288.8673 3.975571
289.3494 4.061081
289.8315 4.406937
290.3136 4.722198
290.7957 4.577591
291.2779 3.895599
291.7600 3.342468
292.2421 3.128540
292.7242 2.989227
293.2063 2.543564
293.6884 1.753769
294.1706 1.160324
294.6527 1.400055
295.1348 2.480164
295.6169 3.071945
296.0990 2.829956
296.5811 2.301849
297.0633 1.785110
297.5454 1.324478
298.0275 1.091980
298.5096 1.300049
298.9917 1.860535
299.4738 2.154129
299.9560 1.947998
300.4381 1.690796
300.9202 1.718201
301.4023 1.951889
301.8844 1.987991
302.3665 1.510696
302.8487 0.7705540
303.3308 0.5259400
303.8129 1.035172
304.2950 1.559860
304.7771 1.706970
305.2592 1.613937
305.7414 1.658676
306.2235 2.019760
306.7056 2.515335
307.1877 2.775757
307.6698 2.762344
308.1519 2.743210
308.6341 2.830841
309.1162 2.963120
309.5983 3.020477
310.0804 2.961792
310.5625 2.871002
311.0446 2.919571
311.5268 3.130615
312.0089 3.092789
312.4910 2.402252
312.9731 1.569351
313.4552 1.218933
313.9373 1.449234
314.4195 1.939743
314.9016 2.521271
315.3837 3.163071
315.8658 3.501404
316.3479 3.293640
316.8300 2.921387
317.3121 2.702820
317.7943 2.638489
318.2764 2.546432
318.7585 2.284668
319.2406 1.897491
319.7227 1.610214
320.2048 1.521835
320.6870 1.431839
321.1691 1.186661
321.6512 0.8379820
322.1333 0.5540920
322.6154 0.3978420
323.0975 0.3786770
323.5797 0.5522610
324.0618 1.078232
324.5439 1.431152
325.0260 1.378784
325.5081 1.035355
325.9902 0.5783540
326.4724 3.5202000E-02
326.9545 0.5097350
327.4366 0.9677280
327.9187 1.394470
328.4008 1.505341
328.8829 0.9254000
329.3651 0.1497800
329.8472 0.2384640
330.3293 0.1383970
330.8114 0.1878510
331.2935 0.5216220
331.7756 0.8636020
332.2578 1.166992
332.7399 1.505478
333.2220 1.748322
333.7041 1.768478
334.1862 1.581589
334.6683 1.312973
335.1505 1.016495
335.6326 0.7154080
336.1147 0.5605470
336.5968 0.6720730
337.0789 0.7814790
337.5610 0.7778020
338.0432 0.6850740
338.5253 0.5388180
339.0074 0.3318790
339.4895 0.1344150
339.9716 0.1675110
340.4537 0.5883180
340.9359 0.9161220
341.4180 1.052231
341.9001 1.048889
342.3822 0.9959720
342.8643 0.9200740
343.3464 0.7064970
343.8286 0.1160890
344.3107 1.196564
344.7928 1.768280
345.2749 0.8625180
345.7570 0.2874150
346.2391 0.6834410
346.7213 0.2872470
347.2034 0.2697450
347.6855 0.4155270
348.1676 0.1220090
348.6497 4.0725999E-02
349.1318 0.3760830
349.6140 0.6818850
350.0961 0.6517490
350.5782 0.4374850
351.0603 0.4254910
351.5424 0.8601680
352.0245 1.625610
352.5067 2.231155
352.9888 2.550797
353.4709 2.865921
353.9530 3.200760
354.4351 3.550583
354.9172 3.917099
355.3994 4.299026
355.8815 4.678574
356.3636 5.022034
356.8457 5.257309
357.3278 5.611008
357.8099 6.290924
358.2920 6.923767
358.7741 7.161850
359.2563 7.039078
359.7384 6.904221
360.2205 7.101929
360.7026 7.664352
361.1847 8.258179
361.6668 9.057022
362.1490 9.706131
362.6311 9.868790
363.1132 9.811752
363.5953 10.05725
364.0774 10.94611
364.5595 12.30887
365.0417 13.41911
365.5238 14.04431
366.0059 14.72072
366.4880 15.62820
366.9701 16.55258
367.4522 17.22253
367.9344 17.56679
368.4165 17.83403
368.8986 18.44540
369.3807 19.57536
369.8628 20.57391
370.3449 21.34428
370.8271 22.05426
371.3092 22.79785
371.7913 23.57135
372.2734 24.32639
372.7555 25.00253
373.2376 25.60291
373.7198 26.25368
374.2019 26.81648
374.6840 27.63042
375.1661 28.87888
375.6482 30.41687
376.1303 32.04088
376.6125 33.69344
377.0946 35.30293
377.5767 36.66797
378.0588 37.65306
378.5409 38.77739
379.0230 40.40274
379.5052 42.08865
379.9873 43.44582
380.4694 44.40051
380.9515 45.28777
381.4336 46.46118
381.9157 47.91556
382.3979 49.30698
382.8800 50.57513
383.3621 51.78448
383.8442 52.94290
384.3263 54.06491
384.8084 55.24615
385.2906 56.54817
385.7727 57.94254
386.2548 59.43323
386.7369 61.10367
387.2190 62.71925
387.7011 64.11319
388.1833 65.32973
388.6654 66.40305
389.1475 67.25673
389.6296 68.12045
390.1117 69.23817
390.5938 70.57890
391.0760 71.90070
391.5581 73.21257
392.0402 74.39052
392.5223 75.27199
393.0044 75.86494
393.4865 76.28259
393.9687 76.36389
394.4508 76.34070
394.9329 76.63937
395.4150 77.35004
395.8971 78.17268
396.3792 78.96263
396.8614 79.66904
397.3435 79.94836
397.8256 79.32930
398.3077 78.64307
398.7898 78.53693
399.2719 78.87314
399.7540 79.10896
400.2361 78.98927
400.7183 78.56763
401.2004 77.97672
401.6825 77.19159
402.1646 76.33717
402.6467 75.49002
403.1288 74.55341
403.6110 73.24016
404.0931 71.53459
404.5752 70.02448
405.0573 69.43285
405.5394 70.03970
406.0215 70.12804
406.5037 69.70705
406.9858 68.84109
407.4679 67.37981
407.9500 65.48976
408.4321 63.50691
408.9142 61.60464
409.3964 59.80446
409.8785 58.17838
410.3606 57.05356
410.8427 55.67430
411.3248 53.77046
411.8069 51.70145
412.2891 49.73921
412.7712 47.98112
413.2533 46.46301
413.7354 45.30261
414.2175 44.63693
414.6996 43.75404
415.1818 42.54460
415.6639 41.21631
416.1460 39.75734
416.6281 38.23424
417.1102 36.79402
417.5923 35.51271
418.0745 34.38470
418.5566 33.35687
419.0387 32.39038
419.5208 31.63379
420.0029 31.63617
420.4850 31.59508
420.9672 30.59702
421.4493 28.40175
421.9314 25.99739
422.4135 24.35437
422.8956 23.45050
423.3777 22.79736
423.8599 22.57304
424.3420 22.23917
424.8241 21.21944
425.3062 19.71725
425.7883 18.46677
426.2704 18.02901
426.7526 17.90315
427.2347 17.25291
427.7168 16.03114
428.1989 14.98270
428.6810 14.54300
429.1631 14.53185
429.6453 14.51854
430.1274 14.59264
430.6095 14.45638
431.0916 13.80452
431.5737 12.86299
432.0558 12.07098
432.5380 11.54286
433.0201 11.16293
433.5022 10.81799
433.9843 10.51237
434.4664 10.21191
434.9485 10.09036
435.4307 9.823578
435.9128 9.003174
436.3949 7.811279
436.8770 6.875488
437.3591 6.582443
437.8412 6.775864
438.3234 6.870621
438.8055 6.934875
439.2876 6.807938
439.7697 6.352783
440.2518 5.775284
440.7339 5.210098
441.2160 4.716980
441.6982 4.376266
442.1803 4.326553
442.6624 4.640625
443.1445 4.713455
443.6266 4.280151
444.1087 3.878326
444.5909 3.709442
445.0730 3.677856
445.5551 3.588181
446.0372 3.332123
446.5193 3.022964
447.0014 2.937836
447.4836 3.172531
447.9657 3.345963
448.4478 3.409042
448.9299 3.371796
449.4120 3.160797
449.8941 2.808258
450.3763 2.526672
450.8584 2.384460
451.3405 2.428802
451.8226 2.983444
452.3047 4.303574
452.7868 5.501236
453.2690 5.975021
453.7511 6.023682
454.2332 5.987030
454.7153 5.867752
455.1974 5.779831
455.6795 5.725571
456.1617 5.745453
456.6438 6.131012
457.1259 7.106857
457.6080 8.206421
458.0901 8.760635
458.5722 8.781143
459.0544 8.887009
459.5365 9.122742
460.0186 9.531891
460.5007 10.27956
460.9828 11.29022
461.4649 12.17607
461.9471 12.68385
462.4292 12.91185
462.9113 13.26617
463.3934 13.96925
463.8755 14.49934
464.3576 14.67278
464.8398 14.66330
465.3219 14.63464
465.8040 14.65746
466.2861 14.78180
466.7682 15.07233
467.2503 15.55173
467.7325 15.89844
468.2146 15.93922
468.6967 15.91867
469.1788 15.89291
469.6609 15.89232
470.1430 15.94766
470.6252 16.05560
471.1073 16.18053
471.5894 16.27637
472.0715 16.34813
472.5536 16.38652
473.0357 16.39297
473.5179 16.38823
474.0000 16.40018
474.4821 16.41156
474.9642 16.35432
475.4463 16.15465
475.9284 15.86136
476.4106 15.57092
476.8927 15.28638
477.3748 15.01363
477.8569 14.63864
478.3390 14.36560
478.8211 14.58310
479.3033 15.49361
479.7854 16.19035
480.2675 15.99673
480.7496 15.32602
481.2317 14.92142
481.7138 14.92012
482.1959 15.04036
482.6780 15.02527
483.1602 14.87831
483.6423 14.84911
484.1244 15.17482
484.6065 15.35590
485.0886 15.15279
485.5707 14.67368
486.0529 14.04678
486.5350 13.32184
487.0171 12.65530
487.4992 12.33687
487.9813 12.56670
488.4634 12.58707
488.9456 12.41824
489.4277 12.06212
489.9098 11.37271
490.3919 10.50421
490.8740 9.755768
491.3561 9.301712
491.8383 9.111679
492.3204 9.177139
492.8025 9.694016
493.2846 9.930099
493.7667 9.637909
494.2488 9.072418
494.7310 8.218033
495.2131 7.157318
495.6952 6.324265
496.1773 6.166977
496.6594 6.459534
497.1415 6.635757
497.6237 6.705109
498.1058 6.540100
498.5879 5.861038
499.0700 4.973480
499.5521 4.483963
500.0342 4.558655
500.5164 4.692673
500.9985 4.665176
501.4806 4.519104
501.9627 4.314301
502.4448 4.063171
502.9269 3.795532
503.4091 3.560486
503.8912 3.356781
504.3733 2.985657
504.8554 2.155075
505.3375 1.501862
505.8196 1.368668
506.3018 1.522919
506.7839 1.588608
507.2660 1.435013
507.7481 1.250839
508.2302 1.389572
508.7123 2.076538
509.1945 2.269073
509.6766 1.528625
510.1587 0.7304380
510.6408 0.1196440
511.1229 0.2961730
511.6050 0.5566710
512.0872 0.6776890
512.5693 0.6672820
513.0514 0.5130000
513.5335 0.1951450
514.0156 0.1300350
514.4977 0.5549320
514.9799 0.8391570
515.4620 0.7324070
515.9441 0.2873000
516.4262 0.1380000
516.9083 0.3998640
517.3904 0.5605010
517.8726 0.6762240
518.3547 0.7533040
518.8368 0.8466720
519.3189 0.9878850
519.8010 1.155945
520.2831 1.324036
520.7653 1.574150
521.2474 1.607018
521.7295 1.090973
522.2116 0.5326690
522.6937 0.4121400
523.1758 0.7138370
523.6580 1.165123
524.1401 1.618820
524.6222 1.989265
525.1043 1.798271
525.5864 0.2540360
526.0685 0.7130890
526.5507 0.5768430
527.0328 8.4778003E-02
527.5149 0.2112430
527.9970 0.2199550
528.4791 0.1064990
528.9612 3.7795998E-02
529.4434 0.1874770
529.9255 0.1626280
530.4076 0.1099850
530.8897 0.3855820
531.3718 0.6251140
531.8539 0.7806020
532.3361 0.7740400
532.8182 0.5750270
533.3003 0.3388750
533.7824 0.1160510
534.2645 6.2629998E-02
534.7466 0.1112670
535.2288 1.1787000E-02
535.7109 0.1335750
536.1930 0.2898180
536.6751 0.4265820
537.1572 0.3786700
537.6393 7.8041002E-02
538.1215 0.4277950
538.6036 0.4432070
539.0857 0.3091890
539.5678 0.2353900
540.0499 0.2734910
540.5320 0.3858870
541.0142 0.5393220
541.4963 0.7345200
541.9784 0.9395220
542.4604 1.242149
542.9426 1.443336
543.4247 1.417282
543.9068 1.310501
544.3889 1.294357
544.8710 1.412369
545.3531 1.566536
545.8353 1.625763
546.3174 1.605156
546.7995 1.704117
547.2816 1.985153
547.7637 2.275169
548.2458 2.555550
548.7280 2.754128
549.2101 2.701477
549.6922 2.248611
550.1743 1.802811
550.6564 1.544182
551.1385 1.488800
551.6207 1.747452
552.1028 2.351280
552.5849 2.973572
553.0670 3.296341
553.5491 3.318474
554.0313 3.428291
554.5134 3.789970
554.9955 4.031624
555.4776 3.929047
555.9597 3.706345
556.4418 3.657608
556.9240 3.848648
557.4061 4.106148
557.8882 4.194626
558.3703 4.097977
558.8524 4.285896
559.3345 5.050377
559.8167 5.676727
560.2988 5.872849
560.7809 5.837540
561.2630 5.798004
561.7451 5.809029
562.2272 5.833633
562.7094 5.824791
563.1915 5.802223
563.6736 5.855118
564.1557 6.014503
564.6378 6.136436
565.1199 6.083549
565.6021 5.907837
566.0842 5.845894
566.5663 5.963928
567.0484 6.101326
567.5305 6.131813
568.0126 6.186783
568.4948 6.546326
568.9769 7.184929
569.4590 7.660294
569.9411 7.512726
570.4232 6.799118
570.9053 6.495270
571.3875 7.015556
571.8696 7.413826
572.3517 7.486412
572.8338 7.398010
573.3159 7.240509
573.7980 7.058609
574.2802 6.959244
574.7623 7.107147
575.2444 7.435555
575.7265 7.624229
576.2086 7.634750
576.6907 7.686180
577.1729 7.983154
577.6550 8.313629
578.1371 8.291267
578.6192 7.795265
579.1013 7.451942
579.5834 7.673126
580.0656 8.115013
580.5477 8.339226
581.0298 8.316544
581.5119 8.280861
581.9940 8.389946
582.4761 8.592819
582.9583 8.747383
583.4404 9.032074
583.9225 9.123131
584.4046 8.840988
584.8867 8.446022
585.3688 7.988617
585.8510 7.583290
586.3331 7.459793
586.8152 7.818924
587.2973 8.433762
587.7794 8.765114
588.2615 8.758217
588.7437 8.740585
589.2258 8.887550
589.7079 8.944717
590.1900 8.563713
590.6721 7.847916
591.1542 7.408066
591.6364 7.625168
592.1185 8.022804
592.6006 8.246262
593.0827 8.305717
593.5648 8.236305
594.0469 8.040077
594.5291 7.841194
595.0112 7.842781
595.4933 8.148949
595.9754 8.305931
596.4575 8.176918
596.9396 8.046539
597.4218 7.964798
597.9039 7.969810
598.3860 8.139656
598.8681 8.492706
599.3502 8.865089
599.8323 9.020340
600.3145 8.970268
600.7966 9.057716
601.2787 9.389275
601.7608 9.652664
602.2429 9.587242
602.7250 9.364342
603.2072 9.232063
603.6893 9.217613
604.1714 9.290222
604.6535 9.437737
605.1356 9.661957
605.6177 10.01930
606.0999 10.49168
606.5820 10.89117
607.0641 11.07530
607.5462 11.08395
608.0283 11.09544
608.5104 11.14272
608.9926 11.14439
609.4747 10.85690
609.9568 10.72396
610.4389 11.26088
610.9210 12.27313
611.4031 13.04372
611.8853 13.07094
612.3674 12.66238
612.8495 12.42974
613.3316 12.37925
613.8137 12.42887
614.2958 12.61604
614.7780 12.82163
615.2601 12.91315
615.7422 12.91032
616.2243 12.92741
616.7064 13.04125
617.1885 13.12862
617.6707 13.02583
618.1528 12.85397
618.6349 12.88525
619.1170 13.19478
619.5991 13.59185
620.0812 13.84536
620.5634 13.94021
621.0455 14.12730
621.5276 14.62893
622.0097 14.94444
622.4918 14.79405
622.9739 14.51213
623.4561 14.47765
623.9382 14.74905
624.4203 15.02879
624.9023 15.10730
625.3845 15.00356
625.8666 14.64613
626.3487 13.98685
626.8308 13.71269
627.3129 14.31696
627.7950 15.30915
628.2772 15.74274
628.7593 15.49802
629.2414 15.40906
629.7235 15.71132
630.2056 16.10802
630.6877 16.46758
631.1699 16.74425
631.6520 16.85390
632.1341 16.75887
632.6162 16.59745
633.0983 16.62721
633.5804 16.90628
634.0626 17.06155
634.5447 16.86201
635.0268 16.86498
635.5089 17.59537
635.9910 18.50813
636.4731 18.77913
636.9553 18.08045
637.4374 17.33717
637.9195 17.26003
638.4016 17.59545
638.8837 17.92538
639.3658 18.17477
639.8480 18.14326
640.3301 17.68417
640.8122 16.89143
641.2943 16.04439
641.7764 14.83047
642.2585 14.04847
642.7407 14.08428
643.2228 14.21435
643.7049 13.97188
644.1870 13.44681
644.6691 12.93372
645.1512 12.56554
645.6334 12.32809
646.1155 12.25806
646.5976 12.35929
647.0797 12.42200
647.5618 12.40073
648.0439 12.34476
648.5261 12.35931
649.0082 12.39530
649.4903 12.25763
649.9724 11.81707
650.4545 11.37698
650.9366 11.07356
651.4188 10.79681
651.9009 10.41319
652.3830 9.935555
652.8651 9.475899
653.3472 9.093117
653.8293 8.803032
654.3115 8.686653
654.7936 8.841881
655.2757 8.943573
655.7578 8.964577
656.2399 8.901237
656.7220 8.656372
657.2042 8.317673
657.6863 8.152664
658.1684 8.379478
658.6505 8.616135
659.1326 8.452629
659.6147 8.014847
660.0969 7.652634
660.5790 7.443176
661.0611 7.254974
661.5432 6.975548
662.0253 6.610336
662.5074 6.226707
662.9896 5.659721
663.4717 5.300072
663.9538 5.382721
664.4359 5.531174
664.9180 5.413200
665.4001 5.061417
665.8823 4.750000
666.3644 4.665886
666.8465 4.692390
667.3286 4.615959
667.8107 4.429726
668.2928 4.185310
668.7750 3.849373
669.2571 3.570129
669.7392 3.539925
670.2213 3.726067
670.7034 3.779793
671.1855 3.579895
671.6677 3.388725
672.1498 3.377892
672.6319 3.366005
673.1140 3.067413
673.5961 2.517883
674.0782 2.084190
674.5604 2.078957
675.0425 2.336456
675.5246 2.251060
676.0067 1.685623
676.4888 1.413261
676.9709 1.870987
677.4531 2.339272
677.9352 2.113731
678.4173 1.407097
678.8994 0.9901120
679.3815 1.256042
679.8636 1.573021
680.3458 1.577415
680.8279 1.390366
681.3100 1.120842
681.7921 0.8280560
682.2742 0.7416760
682.7563 1.117027
683.2385 1.773491
683.7206 1.751137
684.2027 0.5495450
684.6848 0.2358930
685.1669 0.1054690
685.6490 0.2521900
686.1312 0.5659330
686.6133 0.7834550
687.0954 0.8080290
687.5775 0.4909290
688.0596 0.1695020
688.5417 0.1969760
689.0239 0.4410020
689.5060 0.6073910
689.9881 0.6419750
690.4702 0.6027680
690.9523 0.5348280
691.4344 0.4315640
691.9166 0.2391360
692.3987 0.3635250
692.8808 0.5243450
693.3629 0.3245770
693.8450 1.113846
694.3271 1.104462
694.8093 0.5007480
695.2914 8.6356997E-02
695.7735 0.4170610
696.2556 0.5523610
696.7377 0.4910890
697.2198 0.2881390
697.7020 0.1450650
698.1841 9.6207000E-02
698.6662 3.3211000E-02
699.1483 0.1497120
699.6304 0.3863070
700.1125 0.4242250
700.5947 0.1090700
701.0768 0.1695560
701.5589 0.4637450
702.0410 0.6658860
702.5231 0.6620180
703.0052 0.5220570
703.4874 0.3998110
703.9695 0.3619840
704.4516 0.3395080
704.9337 0.2009050
705.4158 7.7590002E-03
705.8979 3.8391002E-02
706.3801 0.1511380
706.8622 0.3964540
707.3442 0.6470340
707.8264 0.8591380
708.3085 0.9071120
708.7906 0.7189100
709.2727 0.5631640
709.7548 0.5480580
710.2369 0.4824520
710.7191 0.1623690
711.2012 0.2639920
711.6833 0.5198210
712.1654 0.5070110
712.6475 0.3779680
713.1296 0.2892150
713.6118 0.2355420
714.0939 0.1648250
714.5760 6.1707001E-02
715.0581 5.7549000E-02
715.5402 0.2634580
716.0223 0.5491100
716.5045 0.6750410
716.9866 0.6037980
717.4687 0.6191560
717.9508 0.7836380
718.4329 0.9981230
718.9150 1.273506
719.3972 1.542816
719.8793 1.725037
720.3614 1.794685
720.8435 1.760857
721.3256 1.552795
721.8077 1.268402
722.2899 1.423882
722.7720 2.122826
723.2541 2.345314
723.7362 1.504990
724.2183 0.4463650
724.7004 0.1972350
725.1826 0.7421490
725.6647 1.249519
726.1468 1.720085
726.6289 2.098030
727.1110 2.313568
727.5931 2.453857
728.0753 2.655853
728.5574 2.904907
729.0395 3.014763
729.5216 2.813896
730.0037 2.453568
730.4858 2.355186
730.9680 2.534157
731.4501 2.619965
731.9322 2.497444
732.4143 2.378860
732.8964 2.474075
733.3785 2.726997
733.8607 2.836464
734.3428 2.697914
734.8249 2.578232
735.3070 2.492836
735.7891 2.476570
736.2712 2.644745
736.7534 2.903351
737.2355 2.969322
737.7176 2.678375
738.1997 2.349426
738.6818 2.603859
739.1639 3.341026
739.6461 3.497734
740.1282 2.850159
740.6103 2.287537
741.0924 2.390350
741.5745 2.828957
742.0566 2.804565
742.5388 2.058563
743.0209 1.759972
743.5030 2.439575
743.9851 3.128937
744.4672 3.342590
744.9493 3.219772
745.4315 2.918777
745.9136 2.526703
746.3957 2.310646
746.8778 2.711464
747.3599 3.458656
747.8420 3.682762
748.3242 3.372314
748.8063 2.944550
749.2884 2.470299
749.7705 2.098976
750.2526 2.025543
750.7347 2.284691
751.2169 2.447289
751.6990 2.452965
752.1811 2.383957
752.6632 2.201836
753.1453 1.984070
753.6274 1.752594
754.1096 1.551643
754.5917 1.483047
755.0738 1.667450
755.5559 1.882828
756.0380 1.722321
756.5201 1.302185
757.0023 1.192909
757.4844 1.505493
757.9665 1.779137
758.4486 1.650391
758.9307 1.260231
759.4128 1.105545
759.8950 1.310577
760.3771 1.562248
760.8592 1.979721
761.3413 2.330460
761.8234 2.500633
762.3055 2.524643
762.7877 2.457161
763.2698 2.312088
763.7519 2.144958
764.2340 1.947083
764.7161 1.764999
765.1982 1.672966
765.6804 1.674057
766.1625 1.814034
766.6446 2.137390
767.1267 2.408005
767.6088 2.267403
768.0909 1.691246
768.5731 1.419418
769.0552 1.637512
769.5373 1.834724
770.0194 1.988266
770.5015 2.008865
770.9836 1.752235
771.4658 1.273872
771.9479 0.8501280
772.4300 0.5479810
772.9121 0.3657000
773.3942 0.3756100
773.8763 0.4784620
774.3585 0.5183640
774.8406 0.4796450
775.3227 0.4427490
775.8048 0.4655380
776.2869 0.5017240
776.7690 0.3920900
777.2512 7.5622998E-02
777.7333 4.9438000E-02
778.2154 0.5088810
778.6975 0.9598390
779.1796 1.182243
779.6617 1.204041
780.1439 1.004822
780.6260 0.4867170
781.1081 0.2369770
781.5902 0.6311950
782.0723 1.093636
782.5544 1.359062
783.0366 1.411430
783.5187 1.140068
784.0008 0.5756150
784.4829 0.1059490
784.9650 0.1730420
785.4471 0.5529250
785.9293 0.4979400
786.4114 9.7699999E-04
786.8935 0.2808300
787.3756 0.1559300
787.8577 0.1729050
788.3398 0.5776210
788.8220 1.036728
789.3040 1.352608
789.7861 1.456924
790.2682 1.525841
790.7504 1.560013
791.2325 1.574387
791.7146 1.518028
792.1967 1.461555
792.6788 1.577606
793.1609 1.950836
793.6431 2.303207
794.1252 2.390030
794.6073 2.290771
795.0894 2.096130
795.5715 1.846756
796.0536 1.712296
796.5358 1.767876
797.0179 1.903214
797.5000 1.961189
797.9821 1.934509
798.4642 1.987282
798.9464 2.183479
799.4285 2.346466
799.9106 2.341431
800.3927 2.373222
800.8748 2.655090
801.3569 3.131691
801.8391 3.425270
802.3212 3.331490
802.8033 3.193069
803.2854 3.133492
803.7675 3.160194
804.2496 3.312012
804.7318 3.563049
805.2139 3.858910
805.6960 4.177711
806.1781 4.416801
806.6602 4.344559
807.1423 3.993401
807.6245 3.834442
808.1066 3.927383
808.5887 3.997879
809.0708 3.886612
809.5529 3.734756
810.0350 3.806236
810.5172 4.176003
810.9993 4.276833
811.4814 3.799065
811.9635 3.452072
812.4456 3.615883
812.9277 3.871094
813.4099 3.755516
813.8920 3.311203
814.3741 2.955521
814.8562 2.928719
815.3383 3.089012
815.8204 3.366104
816.3026 3.689674
816.7847 3.936852
817.2668 4.086411
817.7489 4.076691
818.2310 3.846222
818.7131 3.537300
819.1953 3.580940
819.6774 4.092880
820.1595 4.261101
820.6416 3.890564
821.1237 3.591797
821.6058 3.621216
822.0880 3.756378
822.5701 3.798073
823.0522 3.764992
823.5343 3.673927
824.0164 3.406029
824.4985 3.220558
824.9807 3.387733
825.4628 3.590363
825.9449 3.334641
826.4270 2.735115
826.9091 2.431175
827.3912 2.830849
827.8734 3.449898
828.3555 3.572609
828.8376 3.319115
829.3197 3.210594
829.8018 3.293381
830.2839 3.325745
830.7661 3.188736
831.2482 2.961792
831.7303 2.696556
832.2124 2.307411
832.6945 2.265778
833.1766 2.916985
833.6588 3.452934
834.1409 3.605301
834.6230 3.645935
835.1051 3.870720
835.5872 4.210938
836.0693 4.273468
836.5515 3.744537
837.0336 3.226212
837.5157 3.051765
837.9978 3.054436
838.4799 3.101929
838.9620 3.149467
839.4442 3.125015
839.9263 2.989227
840.4084 2.844223
840.8905 2.851852
841.3726 2.982330
841.8547 3.068481
842.3369 3.107590
842.8190 3.127396
843.3011 3.178185
843.7832 3.087234
844.2653 2.586594
844.7474 1.682961
845.2296 1.120338
845.7117 1.097549
846.1938 1.128845
846.6759 1.207962
847.1580 1.290237
847.6401 1.358803
848.1223 1.407967
848.6044 1.436508
849.0865 1.452988
849.5686 1.408714
850.0507 1.286995
850.5328 1.083771
851.0150 0.6311950
851.4971 0.1224440
851.9792 8.5631996E-02
852.4613 0.6298450
852.9434 1.193581
853.4255 1.195953
853.9077 0.8171620
854.3898 0.6005940
854.8719 0.5454030
855.3540 0.5951310
855.8361 0.7844160
856.3182 0.8544080
856.8004 0.5311970
857.2825 7.0199999E-04
857.7646 0.1226500
858.2467 0.4266820
858.7288 0.8081590
859.2109 0.9590530
859.6931 1.020508
860.1752 0.9553830
860.6573 0.8771820
861.1394 0.9745790
861.6215 1.249657
862.1036 1.378395
862.5858 1.072090
863.0679 0.7491000
863.5500 0.7478560
864.0321 0.8806530
864.5142 0.8843770
864.9963 0.7413560
865.4785 0.5527340
865.9606 0.3639530
866.4427 0.2597270
866.9248 0.4594880
867.4069 0.8798370
867.8890 1.065346
868.3712 0.9848560
868.8533 0.8092190
869.3354 0.5931240
869.8175 0.3571780
870.2996 0.1037520
870.7817 0.1700740
871.2639 0.1839680
871.7459 0.2911380
872.2280 0.6221540
872.7101 0.5814670
873.1923 0.4814760
873.6744 0.5720900
874.1565 0.7384260
874.6386 0.6403810
875.1207 5.6800999E-02
875.6028 0.2729030
876.0850 0.2208020
876.5671 0.7613680
877.0492 0.7716140
877.5313 0.4210210
878.0134 4.6165001E-02
878.4955 0.5134430
878.9777 0.7519840
879.4598 0.4719010
879.9419 8.6589996E-03
880.4240 0.1543350
880.9061 4.7111999E-02
881.3882 3.0913999E-02
881.8704 3.1723000E-02
882.3525 1.3168000E-02
882.8346 7.9887003E-02
883.3167 0.1994630
883.7988 0.4755710
884.2809 0.9592900
884.7631 1.209915
885.2452 1.168190
885.7273 1.031380
886.2094 0.8074420
886.6915 0.5799330
887.1736 0.4721450
887.6558 0.4705120
888.1379 0.3587040
888.6200 0.1258770
889.1021 0.3591380
889.5842 6.9687001E-02
890.0663 0.3485720
890.5485 0.7229000
891.0306 0.9921800
891.5127 1.046059
891.9948 0.8446580
892.4769 0.6841810
892.9590 0.8728870
893.4412 1.096870
893.9233 0.9325410
894.4054 0.5666120
894.8875 0.4414600
895.3696 0.6187970
895.8517 0.7849580
896.3339 0.6901320
896.8160 0.5004040
897.2981 0.6074370
897.7802 0.9666520
898.2623 1.090897
898.7444 0.9130940
899.2266 0.7861250
899.7087 0.8768460
900.1908 1.109108
900.6729 1.417252
901.1550 1.819923
901.6371 1.843231
902.1193 1.201050
902.6014 0.7091900
903.0835 0.5550080
903.5656 0.5628280
904.0477 0.6860120
904.5298 0.8691640
905.0120 0.9527130
905.4941 0.8514250
905.9762 0.8802640
906.4583 1.230553
906.9404 1.614388
907.4225 1.920364
907.9047 2.120850
908.3868 2.148605
908.8689 2.025925
909.3510 1.924667
909.8331 1.929237
910.3152 2.064041
910.7974 2.415955
911.2795 2.856361
911.7616 3.218208
912.2437 3.457092
912.7258 3.464478
913.2079 3.188423
913.6901 2.879295
914.1722 2.914848
914.6543 3.215477
915.1364 3.312538
915.6185 3.198647
916.1006 3.226967
916.5828 3.498039
917.0649 3.736824
917.5470 3.676910
918.0291 3.455269
918.5112 3.562897
918.9933 4.237717
919.4755 4.542213
919.9576 4.296516
920.4397 3.961861
920.9218 3.635506
921.4039 3.361031
921.8860 3.245552
922.3682 3.288780
922.8503 3.211388
923.3324 2.626633
923.8145 2.296349
924.2966 2.640190
924.7787 3.190300
925.2609 3.706177
925.7430 4.105087
926.2251 4.215225
926.7072 3.969475
927.1893 3.808159
927.6714 4.141937
928.1536 4.644341
928.6357 5.028938
929.1178 5.224365
929.5999 5.080803
930.0820 4.677734
930.5641 4.482437
931.0463 4.799500
931.5284 5.310242
932.0105 5.552841
932.4926 5.588196
932.9747 5.606712
933.4568 5.589088
933.9390 5.579330
934.4211 5.575760
934.9032 5.577827
935.3853 5.599754
935.8674 5.608688
936.3495 5.445488
936.8317 5.062263
937.3138 4.834496
937.7959 4.855438
938.2780 4.924294
938.7601 4.982368
939.2422 4.980240
939.7244 4.778999
940.2065 4.297668
940.6886 4.059929
941.1707 4.431190
941.6528 4.542831
942.1349 3.948494
942.6171 3.285248
943.0992 3.001015
943.5813 3.030655
944.0634 3.185249
944.5455 3.502930
945.0276 3.638969
945.5098 3.288170
945.9919 2.912773
946.4740 2.809242
946.9561 2.858498
947.4382 2.938454
947.9203 3.006996
948.4025 3.043022
948.8846 3.057991
949.3667 2.970131
949.8488 2.584084
950.3309 2.108505
950.8130 1.818367
951.2952 1.741257
951.7773 1.964020
952.2594 2.474579
952.7415 2.859650
953.2236 2.702057
953.7057 2.176933
954.1878 1.571495
954.6699 0.9480440
955.1520 0.8673480
955.6342 1.404327
956.1163 1.744926
956.5984 1.420494
957.0805 0.8426210
957.5626 0.6868360
958.0447 0.9437870
958.5269 1.051178
959.0090 0.9825130
959.4911 0.8601490
959.9732 0.6380230
960.4553 0.5545960
960.9374 0.9219780
961.4196 1.478249
961.9017 1.437946
962.3838 0.4765050
962.8659 8.4003001E-02
963.3480 9.8609999E-03
963.8301 0.1537780
964.3123 0.3276330
964.7944 0.4755130
965.2765 0.5774420
965.7586 0.6271210
966.2407 0.6005250
966.7228 0.4577260
967.2050 0.3130800
967.6871 0.1114960
968.1692 1.7550000E-03
968.6513 0.1588520
969.1334 0.4104650
969.6155 0.5460210
970.0977 0.5354190
970.5798 0.4304620
971.0619 0.1683240
971.5440 4.4231001E-02
972.0261 9.8801002E-02
972.5082 1.8223001E-02
972.9904 0.3090210
973.4725 0.7198520
973.9546 0.8651310
974.4367 0.6504210
974.9188 0.2814830
975.4009 0.2163120
975.8831 0.6283490
976.3652 0.5681340
976.8473 0.2351840
977.3294 4.4532999E-02
977.8115 3.2108001E-02
978.2936 4.7061998E-02
978.7758 1.8005000E-02
979.2579 4.2068001E-02
979.7400 0.3642430
980.2221 0.7930490
980.7042 0.4994320
981.1863 0.3885690
981.6685 0.7832150
982.1506 0.4703870
982.6327 9.8110000E-03
983.1148 0.3268810
983.5969 0.5013960
984.0790 0.5160330
984.5612 0.3673710
985.0433 0.5791280
985.5254 1.281487
986.0075 1.499447
986.4896 0.8307040
986.9717 9.7094998E-02
987.4539 1.2440000E-03
987.9360 0.3202740
988.4181 0.3153110
988.9002 0.2142490
989.3823 0.3287930
989.8644 0.2957530
990.3466 0.7075540
990.8287 0.4881210
991.3108 7.2842002E-02
991.7929 0.1434560
992.2750 0.1920470
992.7571 0.2552110
993.2393 0.4180560
993.7214 0.4415820
994.2035 0.1479990
994.6856 7.5320996E-02
995.1677 2.0500001E-02
995.6498 0.1904140
996.1320 9.3845002E-02
996.6141 0.2181320
997.0962 0.2737240
997.5783 0.2031780
998.0604 0.6295200
998.5425 0.8524820
999.0247 0.9848520
999.5068 1.142418
999.9889 1.226662
1000.471 0.9693680
1000.953 0.4090540
1001.435 0.1465680
1001.917 0.6289630
1002.399 1.166843
1002.882 1.503891
1003.364 1.621109
1003.846 1.399399
1004.328 0.9806020
1004.810 0.5332830
1005.292 0.1415710
1005.774 7.3715001E-02
1006.256 0.7415540
1006.739 1.472759
1007.221 1.608582
1007.703 1.435860
1008.185 1.311012
1008.667 1.255306
1009.149 1.195965
1009.631 1.104126
1010.113 0.9678990
1010.595 0.7064250
1011.078 0.4822850
1011.560 0.6437870
1012.042 0.9935380
1012.524 1.009159
1013.006 0.7217750
1013.488 0.6151620
1013.970 0.8960990
1014.452 1.221542
1014.935 1.130840
1015.417 0.8547290
1015.899 1.064835
1016.381 1.634510
1016.863 1.970654
1017.345 1.989407
1017.827 1.842728
1018.309 1.602509
1018.791 1.359497
1019.274 1.238319
1019.756 1.223450
1020.238 1.260086
1020.720 1.328213
1021.202 1.281109
1021.684 1.088657
1022.166 0.8938560
1022.648 0.7681050
1023.130 0.7276000
1023.613 0.8253020
1024.095 1.047825
1024.577 1.160427
1025.059 1.158566
1025.541 1.048943
1026.023 0.8071670
1026.505 0.5530890
1026.987 0.3021850
1027.469 0.1894720
1027.952 0.5232850
1028.434 1.334763
1028.916 1.793533
1029.398 1.830219
1029.880 1.750664
1030.362 1.580425
1030.844 1.375107
1031.326 1.121765
1031.809 0.8991580
1032.291 0.8809280
1032.773 1.098045
1033.255 1.272789
1033.737 1.410923
1034.219 1.494957
1034.701 1.541348
1035.183 1.514194
1035.666 1.316643
1036.148 1.065609
1036.630 1.037968
1037.112 1.298382
1037.594 1.400928
1038.076 1.166553
1038.558 1.076077
1039.040 1.341187
1039.522 1.620678
1040.005 1.688530
1040.487 1.628994
1040.969 1.618809
1041.451 1.678516
1041.933 1.715382
1042.415 1.697025
1042.897 1.699238
1043.379 1.829773
1043.861 1.870674
1044.344 1.563206
1044.826 1.149734
1045.308 1.143204
1045.790 1.655766
1046.272 1.907776
1046.754 1.524429
1047.236 1.289845
1047.718 1.527294
1048.201 1.822430
1048.683 1.968018
1049.165 1.981541
1049.647 1.863586
1050.129 1.594276
1050.611 1.427643
1051.093 1.474064
1051.575 1.545486
1052.057 1.532547
1052.540 1.572937
1053.022 1.846222
1053.504 2.219143
1053.986 2.450954
1054.468 2.502197
1054.950 2.478786
1055.432 2.319424
1055.914 2.223602
1056.396 2.276211
1056.879 2.402039
1057.361 2.531181
1057.843 2.699837
1058.325 3.035328
1058.807 3.546120
1059.289 3.874126
1059.771 3.781879
1060.253 3.656937
1060.736 3.684059
1061.218 3.695415
1061.700 3.550415
1062.182 3.304729
1062.664 3.002209
1063.146 2.672230
1063.628 2.549297
1064.110 2.979179
1064.593 3.266781
1065.075 2.922894
1065.557 2.537346
1066.039 2.499454
1066.521 2.752399
1067.003 3.317108
1067.485 4.101166
1067.967 4.486397
1068.449 3.878345
1068.932 3.465641
1069.414 4.017132
1069.896 4.726768
1070.378 5.116699
1070.860 5.198616
1071.342 4.944332
1071.824 4.439068
1072.306 4.082779
1072.788 4.067844
1073.271 4.118336
1073.753 4.050690
1074.235 4.064018
1074.717 4.414165
1075.199 4.861160
1075.681 5.108486
1076.163 5.129185
1076.645 4.997673
1077.127 4.632969
1077.610 4.466442
1078.092 4.907814
1078.574 5.387249
1079.056 5.443394
1079.538 5.367229
1080.020 5.558311
1080.502 5.972523
1080.984 6.285870
1081.467 6.372250
1081.949 6.500824
1082.431 6.891624
1082.913 7.242596
1083.395 7.363770
1083.877 7.352654
1084.359 7.199257
1084.841 7.030327
1085.323 7.230461
1085.806 7.973343
1086.288 8.336441
1086.770 7.447762
1087.252 6.679005
1087.734 6.826862
1088.216 7.342239
1088.698 7.914204
1089.180 8.362667
1089.662 8.346741
1090.145 7.794926
1090.627 7.407726
1091.109 7.471172
1091.591 7.720352
1092.073 8.087456
1092.555 8.553280
1093.037 9.281853
1093.519 10.00814
1094.002 10.25413
1094.484 9.988289
1094.966 9.743881
1095.448 9.727333
1095.930 9.693104
1096.412 9.451744
1096.894 9.286209
1097.376 9.421646
1097.859 9.716545
1098.341 9.973587
1098.823 10.17824
1099.305 10.43140
1099.787 10.78529
1100.269 11.15003
1100.751 11.62116
1101.233 11.94687
1101.715 11.89748
1102.198 11.72428
1102.680 11.64681
1103.162 11.68114
1103.644 11.82626
1104.126 12.11751
1104.608 12.42533
1105.090 12.64905
1105.572 12.97800
1106.054 13.52750
1106.537 14.18228
1107.019 14.98201
1107.501 15.79642
1107.983 16.26683
1108.465 16.29251
1108.947 16.44601
1109.429 16.81727
1109.911 17.14307
1110.394 17.47430
1110.876 17.74220
1111.358 17.85047
1111.840 17.87793
1112.322 17.86446
1112.804 17.77110
1113.286 17.78703
1113.768 18.11932
1114.250 18.30644
1114.733 18.11973
1115.215 17.92844
1115.697 17.96601
1116.179 18.04057
1116.661 17.88223
1117.143 17.55565
1117.625 17.48257
1118.107 17.79471
1118.589 18.05717
1119.072 18.28273
1119.554 18.37223
1120.036 18.12694
1120.518 18.06156
1121.000 18.83042
1121.482 19.95521
1121.964 19.89611
1122.446 18.29060
1122.929 17.77798
1123.411 18.73857
1123.893 19.50597
1124.375 19.72762
1124.857 19.68560
1125.339 19.50438
1125.821 19.28297
1126.303 19.20917
1126.786 19.26809
1127.268 19.14578
1127.750 18.80042
1128.232 18.65267
1128.714 18.78632
1129.196 18.97733
1129.678 19.16745
1130.160 19.09090
1130.642 18.35786
1131.125 17.23727
1131.607 16.71075
1132.089 16.74738
1132.571 16.78646
1133.053 16.79648
1133.535 16.93779
1134.017 17.26241
1134.499 17.44980
1134.981 17.23801
1135.464 16.78817
1135.946 16.25528
1136.428 15.75560
1136.910 15.84626
1137.392 16.39849
1137.874 16.86073
1138.356 17.09713
1138.838 16.94357
1139.321 16.31333
1139.803 15.61554
1140.285 15.36533
1140.767 15.29829
1141.249 14.86264
1141.731 14.25143
1142.213 13.87491
1142.695 13.75060
1143.177 13.84306
1143.660 14.08942
1144.142 14.11086
1144.624 13.54721
1145.106 12.85930
1145.588 12.56810
1146.070 12.40990
1146.552 11.99397
1147.034 11.48237
1147.516 11.25244
1147.999 11.28761
1148.481 11.25076
1148.963 11.01218
1149.445 10.62029
1149.927 9.890259
1150.409 9.258408
1150.891 9.211700
1151.373 9.290588
1151.856 8.950378
1152.338 8.320694
1152.820 7.788826
1153.302 7.435043
1153.784 7.202248
1154.266 7.209747
1154.748 7.142830
1155.230 6.735802
1155.713 6.405785
1156.195 6.655930
1156.677 6.979118
1157.159 6.624741
1157.641 5.668297
1158.123 4.921852
1158.605 4.579559
1159.087 4.199310
1159.569 3.613739
1160.052 3.176727
1160.534 3.172218
1161.016 3.137383
1161.498 2.651001
1161.980 1.943352
1162.462 1.544205
1162.944 1.504807
1163.426 1.233604
1163.908 0.6372760
1164.391 7.6782003E-02
1164.873 0.4037090
1165.355 0.8746190
1165.837 1.435837
1166.319 1.795624
1166.801 1.522003
1167.283 0.8560560
1167.765 0.7057800
1168.247 1.079552
1168.730 1.212105
1169.212 1.689011
1169.694 1.850090
1170.176 1.508179
1170.658 1.249992
1171.140 1.509872
1171.622 1.852364
1172.104 1.535965
1172.587 0.7373960
1173.069 6.4079002E-02
1173.551 0.8018110
1174.033 1.204109
1174.515 1.249153
1174.997 1.149300
1175.479 0.9927060
1175.961 0.9492110
1176.443 1.213692
1176.926 1.563217
1177.408 1.701553
1177.890 1.770241
1178.372 1.938347
1178.854 2.181259
1179.336 2.476891
1179.818 2.819695
1180.300 3.209808
1180.782 3.650223
1181.265 4.016594
1181.747 4.231224
1182.229 4.386307
1182.711 4.488533
1183.193 4.562881
1183.675 4.542664
1184.157 4.562584
1184.639 5.004539
1185.122 5.883148
1185.604 6.397308
1186.086 6.185776
1186.568 5.907906
1187.050 5.502083
1187.532 5.275711
1188.014 5.447281
1188.496 5.755943
1188.979 5.961365
1189.461 6.113022
1189.943 6.404869
1190.425 6.921494
1190.907 7.067055
1191.389 6.617973
1191.871 6.522079
1192.353 7.061050
1192.835 7.492233
1193.318 7.383713
1193.800 7.146027
1194.282 7.215530
1194.764 7.538010
1195.246 7.640381
1195.728 7.423172
1196.210 7.355621
1196.692 7.753372
1197.174 7.825272
1197.657 7.160324
1198.139 6.505753
1198.621 6.424896
1199.103 6.386108
1199.585 6.363586
1200.067 6.384750
1200.549 6.361603
1201.031 6.311066
1201.514 6.451721
1201.996 6.797592
1202.478 7.479050
1202.960 8.474121
1203.442 9.235336
1203.924 9.373276
1204.406 9.314514
1204.888 9.447342
1205.370 9.440857
1205.853 8.828796
1206.335 8.063370
1206.817 7.707489
1207.299 7.792160
1207.781 8.182281
1208.263 8.877945
1208.745 9.360855
1209.227 9.620331
1209.709 9.472870
1210.192 8.141891
1210.674 7.220047
1211.156 7.924225
1211.638 9.119568
1212.120 9.554321
1212.602 9.463806
1213.084 9.457565
1213.566 9.541641
1214.049 9.460693
1214.531 9.326111
1215.013 8.702011
1215.495 7.312775
1215.977 6.038788
1216.459 5.286407
1216.941 4.978271
1217.423 5.108887
1217.906 5.394196
1218.388 4.645004
1218.870 3.311096
1219.352 2.860611
1219.834 3.121109
1220.316 3.184296
1220.798 2.854492
1221.280 2.413010
1221.762 2.089737
1222.245 1.829163
1222.727 1.481201
1223.209 1.152161
1223.691 0.4548650
1224.173 0.1067810
1224.655 0.5889280
1225.137 0.9182430
1225.619 0.0000000E+00
