#Shining_header
#Data type:raman_database
#CAS:Not entered
#Material scientific name:Annite
#Manufacturer:Not entered
#Laser model:Not entered
#Spectrometer model:Not entered
#Testing unit:Not entered
#Test time:Not entered
#Other experimental details:Not entered
#Shining_data
145.3421 0.0000000E+00
145.8242 0.2505490
146.3063 0.4784240
146.7884 0.1232450
147.2706 0.1681670
147.7527 0.1430050
148.2348 0.2596740
148.7169 0.8653560
149.1990 1.288483
149.6811 1.381836
150.1633 1.755020
150.6454 2.758972
151.1275 4.240952
151.6096 5.715118
152.0917 6.997482
152.5738 8.181641
153.0560 9.482773
153.5381 10.96347
154.0202 12.33237
154.5023 13.17772
154.9844 13.45793
155.4665 14.06393
155.9487 15.55583
156.4308 17.41435
156.9129 19.31224
157.3950 21.19991
157.8771 22.98276
158.3592 24.41077
158.8414 25.15196
159.3235 26.39668
159.8056 28.67355
160.2877 31.38808
160.7698 34.10699
161.2519 36.64706
161.7341 39.01080
162.2162 41.17088
162.6983 42.92825
163.1804 44.75923
163.6625 46.58371
164.1446 48.55070
164.6268 50.83754
165.1089 53.56651
165.5910 56.67427
166.0731 59.79993
166.5552 63.12671
167.0373 66.26598
167.5195 68.94536
168.0016 71.38469
168.4837 74.04887
168.9658 77.26983
169.4479 81.01219
169.9300 84.37968
170.4122 87.30460
170.8943 90.01127
171.3764 92.59585
171.8585 95.04858
172.3406 97.33376
172.8227 99.44238
173.3049 101.3134
173.7870 102.8819
174.2691 104.0350
174.7512 104.9771
175.2333 105.8495
175.7154 106.6596
176.1976 107.4061
176.6797 108.2370
177.1618 109.0097
177.6439 109.2876
178.1260 108.8447
178.6081 107.9400
179.0903 106.9673
179.5724 105.7334
180.0545 104.4141
180.5366 102.8076
181.0187 100.7229
181.5008 98.51695
181.9830 96.38389
182.4651 94.16135
182.9472 91.61364
183.4293 89.01635
183.9114 86.33628
184.3935 83.48955
184.8757 80.68890
185.3578 78.08059
185.8399 75.67745
186.3220 73.40484
186.8041 70.73902
187.2862 66.90917
187.7684 63.24660
188.2505 60.45256
188.7326 58.31802
189.2147 56.14735
189.6968 53.46776
190.1789 50.24270
190.6611 47.35980
191.1432 45.02361
191.6253 42.82556
192.1074 40.68820
192.5895 38.60370
193.0716 36.56310
193.5538 34.58792
194.0359 32.67026
194.5180 30.77815
195.0001 28.82336
195.4822 26.96973
195.9643 25.32033
196.4465 23.85849
196.9286 22.48167
197.4107 21.12688
197.8928 19.80637
198.3749 18.33738
198.8570 16.47998
199.3392 14.67064
199.8213 13.15571
200.3034 11.96175
200.7855 11.06149
201.2676 10.51567
201.7497 10.34505
202.2319 9.946701
202.7140 9.099617
203.1961 8.151787
203.6782 7.386818
204.1603 6.837570
204.6424 6.372047
205.1246 5.885780
205.6067 5.389595
206.0888 4.906517
206.5709 4.494743
207.0530 4.074219
207.5351 3.490013
208.0173 2.672340
208.4994 1.902321
208.9815 1.427254
209.4636 1.160690
209.9457 0.9602970
210.4278 0.8501510
210.9100 0.7600560
211.3921 0.4849170
211.8742 0.1081850
212.3563 0.5986180
212.8384 0.6172100
213.3205 0.3760220
213.8027 0.2741240
214.2848 0.6831050
214.7669 1.381363
215.2490 1.492935
215.7311 0.5740360
216.2132 0.2570270
216.6953 0.5564420
217.1775 0.4558030
217.6596 0.1543120
218.1417 0.3283390
218.6238 0.9118420
219.1059 1.070511
219.5880 0.2774960
220.0702 0.2999570
220.5523 0.1519240
221.0344 0.4127810
221.5165 0.8789980
221.9986 0.8831180
222.4807 0.4873350
222.9629 0.2789230
223.4450 0.4051280
223.9271 0.5839770
224.4092 0.8759990
224.8913 1.170509
225.3734 1.274742
225.8556 1.037956
226.3377 0.5044100
226.8198 0.1810610
227.3019 0.3161930
227.7840 0.4099120
228.2661 0.4294200
228.7483 0.3282930
229.2304 2.2774000E-02
229.7125 0.7523500
230.1946 1.778725
230.6767 2.177193
231.1588 1.235336
231.6410 0.4976270
232.1231 0.4473720
232.6052 0.8739320
233.0873 1.329422
233.5694 1.539246
234.0515 1.552887
234.5337 1.734634
235.0158 2.295349
235.4979 2.760712
235.9800 2.932693
236.4621 2.902962
236.9442 2.887741
237.4264 3.020294
237.9085 3.244003
238.3906 3.293297
238.8727 2.971497
239.3548 2.732796
239.8369 2.799347
240.3191 3.072380
240.8012 3.292854
241.2833 3.300629
241.7654 3.208931
242.2475 3.356842
242.7296 3.847977
243.2118 4.362427
243.6939 4.806213
244.1760 5.172905
244.6581 5.436310
245.1402 5.573257
245.6223 5.604980
246.1045 5.572258
246.5866 5.445396
247.0687 5.355927
247.5508 5.392662
248.0329 5.524147
248.5150 5.630875
248.9972 5.643997
249.4793 5.657402
249.9614 5.834328
250.4435 6.209343
250.9256 6.516075
251.4077 6.530724
251.8899 6.326370
252.3720 6.243057
252.8541 6.447960
253.3362 6.699692
253.8183 6.685242
254.3004 6.407913
254.7826 6.218643
255.2647 6.459389
255.7468 7.019386
256.2289 7.284828
256.7110 6.896744
257.1931 6.535126
257.6753 6.389320
258.1574 7.329247
258.6395 7.965454
259.1216 8.304359
259.6037 7.484329
260.0858 8.157417
260.5680 8.230911
261.0501 8.279442
261.5322 9.161873
262.0143 8.509399
262.4964 9.459854
262.9785 9.624207
263.4607 9.614212
263.9428 9.778145
264.4249 10.32611
264.9070 10.73785
265.3891 10.64835
265.8712 10.26110
266.3534 9.989830
266.8355 10.12171
267.3176 10.56172
267.7997 10.92204
268.2818 11.26373
268.7639 11.40395
269.2461 11.14884
269.7282 10.69429
270.2103 10.33233
270.6924 10.25134
271.1745 10.42970
271.6566 10.71004
272.1388 10.47064
272.6209 11.11861
273.1030 11.44424
273.5851 11.53444
274.0672 10.51323
274.5493 10.99163
275.0315 10.86848
275.5136 10.71175
275.9957 11.35750
276.4778 10.23136
276.9599 10.20053
277.4420 10.58016
277.9242 11.02338
278.4063 11.37516
278.8884 11.56695
279.3705 11.52810
279.8526 11.25812
280.3347 10.85608
280.8169 10.15289
281.2990 9.423409
281.7811 8.901787
282.2632 8.631561
282.7453 8.473717
283.2274 8.263817
283.7096 8.075493
284.1917 7.730026
284.6738 7.007042
285.1559 6.267273
285.6380 5.710899
286.1201 5.380936
286.6023 5.232750
287.0844 5.264206
287.5665 5.568001
288.0486 5.696602
288.5307 5.521263
289.0128 5.272545
289.4950 5.084534
289.9771 4.940041
290.4592 4.702766
290.9413 4.197784
291.4234 3.383415
291.9055 2.806839
292.3877 2.599007
292.8698 2.497643
293.3519 2.480438
293.8340 2.501480
294.3161 2.492134
294.7982 2.401352
295.2804 2.236938
295.7625 2.099197
296.2446 2.086632
296.7267 1.990372
297.2088 1.676842
297.6909 1.275063
298.1731 0.9867250
298.6552 0.9270940
299.1373 1.031151
299.6194 1.057045
300.1015 0.9667890
300.5836 0.8372420
301.0658 0.5050960
301.5479 0.2071990
302.0300 0.2947850
302.5121 0.8902890
302.9942 1.667900
303.4763 1.928764
303.9585 1.060631
304.4406 0.5869830
304.9227 0.8593600
305.4048 1.293320
305.8869 1.406815
306.3690 1.097076
306.8512 0.6043780
307.3333 0.2503740
307.8154 5.7472002E-02
308.2975 3.3821002E-02
308.7796 2.1354999E-02
309.2617 6.9678999E-02
309.7439 0.2967070
310.2260 0.6158750
310.7081 0.8611530
311.1902 0.8426360
311.6723 0.4955370
312.1544 0.3628390
312.6366 0.6890790
313.1187 0.9569020
313.6008 0.9364320
314.0829 0.6849210
314.5650 0.3637620
315.0471 7.4913003E-02
315.5293 0.1729510
316.0114 0.2579500
316.4935 9.8040001E-03
316.9756 0.2107010
317.4577 0.3588560
317.9398 0.4264140
318.4220 0.3804630
318.9041 0.1969910
319.3862 5.0583001E-02
319.8683 0.1281360
320.3504 0.1149520
320.8326 0.3544460
321.3147 0.5967100
321.7968 0.8172070
322.2789 1.024078
322.7610 1.209633
323.2431 1.306206
323.7253 1.182121
324.2074 0.6443250
324.6895 0.2637250
325.1716 2.4277000E-02
325.6537 0.1423190
326.1358 0.1173100
326.6180 0.6874240
327.1001 1.162498
327.5822 1.055489
328.0643 0.1899030
328.5464 0.3678510
329.0285 0.5167850
329.5107 0.5030520
329.9928 0.3304290
330.4749 7.0450000E-02
330.9570 0.1392440
331.4391 0.1873780
331.9212 8.6898997E-02
332.4034 3.8688999E-02
332.8855 2.7930999E-02
333.3676 3.8582001E-02
333.8497 0.4483950
334.3318 0.9683760
334.8139 1.241020
335.2961 1.080505
335.7782 0.6581500
336.2603 0.4882510
336.7424 0.8255460
337.2245 1.044090
337.7066 1.011154
338.1888 0.8972470
338.6708 0.8634800
339.1530 0.9515300
339.6351 1.093033
340.1172 1.187225
340.5993 1.247704
341.0814 1.229042
341.5635 1.093697
342.0457 0.9223790
342.5278 0.6614690
343.0099 0.3746490
343.4920 0.2516330
343.9741 0.5052110
344.4562 1.161125
344.9384 1.710510
345.4205 2.307114
345.9026 2.622627
346.3847 2.322166
346.8668 1.698059
347.3489 1.277489
347.8311 1.408775
348.3132 1.930748
348.7953 2.186279
349.2774 1.990570
349.7595 1.798569
350.2416 1.633270
350.7238 1.541039
351.2059 1.597893
351.6880 1.827736
352.1701 2.124474
352.6522 2.311562
353.1343 2.356827
353.6165 2.384293
354.0986 2.526146
354.5807 2.565521
355.0628 2.264381
355.5449 1.667831
356.0270 1.116974
356.5092 0.9721070
356.9913 1.251183
357.4734 1.507103
357.9555 1.810738
358.4376 1.999504
358.9197 1.923943
359.4019 1.688492
359.8840 1.499603
360.3661 1.491547
360.8482 1.609100
361.3303 1.665955
361.8124 1.598244
362.2946 1.607376
362.7767 2.019066
363.2588 2.422485
363.7409 1.756699
364.2230 2.425209
364.7051 2.784134
365.1873 2.850990
365.6694 1.759453
366.1515 2.160896
366.6336 1.964081
367.1157 1.744431
367.5978 2.253296
368.0800 2.371170
368.5621 2.404083
369.0442 2.302170
369.5263 2.095161
370.0084 1.962540
370.4905 1.899780
370.9727 1.912651
371.4548 2.167053
371.9369 2.518875
372.4190 2.623688
372.9011 2.194328
373.3832 1.547798
373.8654 1.183884
374.3475 1.148178
374.8296 1.107483
375.3117 0.8660130
375.7938 0.5372920
376.2759 0.2796100
376.7581 0.1052020
377.2402 4.9510002E-03
377.7223 4.8679998E-03
378.2044 9.7015001E-02
378.6865 0.1907580
379.1686 0.2313770
379.6508 0.2861790
380.1329 0.5542140
380.6150 1.038513
381.0971 1.302818
381.5792 0.9825290
382.0613 0.4526900
382.5435 0.3195190
383.0256 0.6578830
383.5077 0.9876560
383.9898 0.8906480
384.4719 0.4660640
384.9540 0.3472600
385.4362 0.8822020
385.9183 1.429878
386.4004 1.577805
386.8825 1.399696
387.3646 1.112892
387.8467 0.7994920
388.3289 0.4915620
388.8110 0.2869110
389.2931 0.1316830
389.7752 0.1500930
390.2573 0.5321880
390.7394 1.029259
391.2216 1.346207
391.7037 1.430206
392.1858 1.379677
392.6679 1.335991
393.1500 1.311783
393.6321 1.247658
394.1143 1.129471
394.5964 0.9911500
395.0785 0.3697280
395.5606 1.107307
396.0427 1.539146
396.5248 1.682793
397.0070 0.6707000
397.4891 1.153877
397.9712 1.038147
398.4533 0.8957600
398.9354 1.585114
399.4175 0.7375260
399.8997 1.413582
400.3818 1.338631
400.8639 1.386856
401.3460 1.435822
401.8281 1.464096
402.3102 1.557480
402.7924 1.828201
403.2745 2.055092
403.7566 2.149086
404.2387 2.101410
404.7208 1.896973
405.2029 1.467194
405.6851 0.8837360
406.1672 0.7587890
406.6493 1.600906
407.1314 2.172607
407.6135 2.060463
408.0956 1.616241
408.5778 1.183807
409.0599 0.8840330
409.5420 0.7197570
410.0241 0.7251280
410.5062 0.9342190
410.9883 1.130814
411.4705 1.267906
411.9526 1.398239
412.4347 1.641495
412.9168 1.938278
413.3989 2.032753
413.8810 1.604607
414.3632 0.8196640
414.8453 0.2780840
415.3274 1.7890999E-02
415.8095 7.0679002E-02
416.2916 0.2535170
416.7737 0.7780760
417.2559 1.341606
417.7380 2.038292
418.2201 2.480934
418.7022 2.085625
419.1843 0.9569930
419.6664 9.9463999E-02
420.1486 0.1645360
420.6307 5.9241999E-02
421.1128 0.1919020
421.5949 0.5898280
422.0770 0.9248350
422.5591 1.132858
423.0413 1.229782
423.5234 1.237373
424.0055 1.158028
424.4876 0.9752810
424.9697 0.6433490
425.4518 0.1881410
425.9340 0.1980210
426.4161 0.6319500
426.8982 0.8788530
427.3803 0.7521290
427.8624 0.3669130
428.3445 7.8171000E-02
428.8267 0.5246050
429.3088 0.8962780
429.7909 1.057106
430.2730 0.9213100
430.7551 0.7393340
431.2372 0.4043660
431.7194 0.1067350
432.2015 1.8340999E-02
432.6836 0.1181110
433.1657 0.2521360
433.6478 0.3038790
434.1299 0.2759320
434.6121 0.1943360
435.0942 5.2551001E-02
435.5763 0.2228780
436.0584 0.3211290
436.5405 0.3045730
437.0226 3.9565999E-02
437.5048 0.4974900
437.9869 1.039833
438.4690 1.129196
438.9511 0.5895540
439.4332 0.1599200
439.9153 0.2445300
440.3975 0.4497600
440.8796 0.1973570
441.3617 0.3437190
441.8438 0.7261510
442.3259 0.6026310
442.8080 0.1427990
443.2902 5.6030001E-02
443.7723 0.1440810
444.2544 0.2493060
444.7365 0.1032870
445.2186 0.5266420
445.7007 0.6337740
446.1829 0.3360060
446.6650 4.8668001E-02
447.1471 0.2857360
447.6292 0.3822100
448.1113 0.3340230
448.5934 3.7094001E-02
449.0756 0.2006450
449.5577 1.0399000E-02
450.0398 0.4657290
450.5219 0.8092190
451.0040 0.7893220
451.4861 0.6757510
451.9683 0.7829900
452.4504 1.065254
452.9325 1.187988
453.4146 0.9647450
453.8967 0.5520860
454.3788 0.2763670
454.8610 0.1093060
455.3431 0.1068800
455.8252 0.4744950
456.3073 0.9039540
456.7894 1.027313
457.2715 0.8099210
457.7537 0.5046080
458.2358 0.2957000
458.7179 0.1834490
459.2000 0.3027270
459.6821 0.8882830
460.1642 1.395683
460.6464 1.642570
461.1285 1.730690
461.6106 1.803543
462.0927 1.915848
462.5748 2.031326
463.0569 2.069328
463.5391 1.937798
464.0212 1.978561
464.5033 2.516830
464.9854 2.916275
465.4675 2.696983
465.9496 2.079048
466.4318 1.663834
466.9139 1.881645
467.3960 2.517593
467.8781 2.908615
468.3602 3.019577
468.8423 2.979759
469.3245 2.566948
469.8066 2.178696
470.2887 2.220894
470.7708 2.739578
471.2529 3.248230
471.7350 3.327408
472.2172 3.080414
472.6993 2.877441
473.1814 2.722664
473.6635 2.687332
474.1456 2.876099
474.6277 3.225868
475.1099 3.629997
475.5920 4.206078
476.0741 4.651634
476.5562 4.585266
477.0383 4.201370
477.5204 4.137947
478.0026 4.654984
478.4847 5.340065
478.9668 5.566513
479.4489 5.217842
479.9310 4.942200
480.4131 4.777016
480.8953 4.690163
481.3774 4.653358
481.8595 4.675385
482.3416 4.771172
482.8237 4.940407
483.3058 4.684265
483.7880 5.463638
484.2701 5.909431
484.7522 6.049805
485.2343 5.040741
485.7164 5.549850
486.1985 5.485428
486.6807 5.398193
487.1628 6.146034
487.6449 5.358162
488.1270 6.092598
488.6091 6.218155
489.0912 6.620407
489.5734 6.418770
490.0555 6.400948
490.5376 6.987862
491.0197 7.241459
491.5018 6.970665
491.9839 7.389194
492.4661 6.575218
492.9482 6.835060
493.4303 6.967464
493.9124 7.027264
494.3945 7.092823
494.8766 7.157497
495.3588 7.231709
495.8409 7.373837
496.3230 7.744804
496.8051 8.047035
497.2872 7.980286
497.7693 7.606956
498.2515 7.200878
498.7336 6.863518
499.2157 6.645348
499.6978 6.621696
500.1799 6.832748
500.6620 7.082890
501.1442 7.480595
501.6263 7.820644
502.1084 7.855350
502.5905 7.663300
503.0726 7.553532
503.5547 7.759254
504.0368 8.186111
504.5190 8.418011
505.0011 8.237629
505.4832 8.144325
505.9653 8.331150
506.4474 8.477097
506.9295 8.229221
507.4117 7.677277
507.8938 7.231098
508.3759 7.242210
508.8580 7.644974
509.3401 7.445087
509.8222 8.130054
510.3044 8.509956
510.7865 8.600754
511.2686 7.533203
511.7507 7.958038
512.2328 7.782772
512.7150 7.581818
513.1971 8.214359
513.6792 7.312447
514.1613 8.327282
514.6434 8.252998
515.1255 8.045128
515.6077 7.851383
516.0898 7.696373
516.5719 7.620365
517.0540 7.633556
517.5361 7.710247
518.0182 7.872879
518.5004 8.064518
518.9825 8.210518
519.4646 8.301552
519.9467 8.337296
520.4288 8.302597
520.9109 8.179405
521.3931 8.116753
521.8752 8.240292
522.3573 8.267708
522.8394 8.021217
523.3215 7.654915
523.8036 7.384155
524.2858 7.010994
524.7679 7.746391
525.2500 8.162304
525.7321 8.276047
526.2142 7.219852
526.6964 7.655491
527.1785 7.511589
527.6606 7.358421
528.1427 8.036224
528.6248 7.168774
529.1069 7.825809
529.5891 7.891998
530.0712 8.254581
530.5533 7.919209
531.0354 8.114254
531.5175 8.046543
531.9996 7.824337
532.4818 7.504066
532.9639 7.081799
533.4460 6.706371
533.9281 6.363415
534.4102 6.158077
534.8923 6.241337
535.3745 6.529541
535.8566 6.770691
536.3387 6.843513
536.8208 6.759663
537.3029 6.507401
537.7850 5.867115
538.2672 5.524620
538.7493 5.771797
539.2314 6.029984
539.7135 5.928307
540.1956 5.554249
540.6777 5.182011
541.1599 4.958282
541.6420 4.902439
542.1241 5.154762
542.6062 5.930218
543.0883 6.320160
543.5704 5.770622
544.0526 5.094334
544.5347 4.794731
545.0168 4.834080
545.4989 4.897846
545.9810 4.825737
546.4631 4.676487
546.9453 4.488251
547.4274 4.265419
547.9095 4.232414
548.3916 4.590309
548.8737 5.050697
549.3558 4.992199
549.8380 4.293056
550.3201 3.959030
550.8022 4.649410
551.2843 5.411282
551.7664 5.341602
552.2485 4.600578
552.7307 3.959808
553.2128 3.866642
553.6949 4.116314
554.1770 4.127411
554.6591 3.714035
555.1412 3.389515
555.6234 3.099007
556.1055 2.943710
556.5876 3.147644
557.0697 3.554878
557.5518 3.704052
558.0339 3.240948
558.5161 2.456486
558.9982 2.033318
559.4803 2.027298
559.9624 2.062099
560.4445 2.092678
560.9266 2.075054
561.4088 1.935818
561.8909 1.690414
562.3730 1.512936
562.8551 1.444508
563.3372 1.490910
563.8193 1.762909
564.3015 2.193970
564.7836 2.432709
565.2657 2.298332
565.7478 1.972660
566.2299 1.796352
566.7120 1.888039
567.1942 1.834274
567.6763 1.371128
568.1584 1.007710
568.6405 1.126198
569.1226 1.574467
569.6047 1.981861
570.0869 2.154911
570.5690 2.168697
571.0511 2.211857
571.5332 2.369839
572.0153 2.215881
572.4974 1.376091
572.9796 0.5443760
573.4617 8.0913998E-02
573.9438 8.5185997E-02
574.4259 0.1671180
574.9080 0.2530210
575.3901 0.2879370
575.8723 0.1558230
576.3544 0.1044200
576.8365 0.2681120
577.3186 0.2631990
577.8007 0.1741910
578.2828 7.9231001E-02
578.7650 2.2560000E-02
579.2471 9.5062003E-02
579.7292 7.3527999E-02
580.2113 9.0011999E-02
580.6934 0.2831380
581.1755 0.5348970
581.6577 0.6431080
582.1398 0.5429840
582.6219 0.3397670
583.1040 0.1507340
583.5861 4.2187002E-02
584.0682 7.3536001E-02
584.5504 0.2485010
585.0325 0.5028800
585.5145 0.4710080
585.9966 0.3391000
586.4788 0.3742070
586.9609 0.6589510
587.4430 0.9599800
587.9251 1.035725
588.4072 0.9409140
588.8893 0.9084850
589.3715 0.9871640
589.8536 0.9951780
590.3357 0.7518960
590.8178 0.3540570
591.2999 0.1454120
591.7820 0.2284010
592.2642 0.3087880
592.7463 0.3586350
593.2284 0.3228530
593.7105 4.5295998E-02
594.1926 0.4264980
594.6747 0.7738000
595.1569 0.7149850
595.6390 0.3532330
596.1211 0.2526510
596.6032 0.6278080
597.0853 0.8925860
597.5674 0.9385260
598.0496 0.8944170
598.5317 0.7637900
599.0138 0.6075590
599.4959 0.6240200
599.9780 1.035919
600.4601 1.625473
600.9423 1.980980
601.4244 2.100498
601.9065 2.150333
602.3886 2.134796
602.8707 2.144428
603.3528 2.358875
603.8350 2.783867
604.3171 3.062828
604.7992 2.984604
605.2813 2.902245
605.7634 3.042236
606.2455 3.349918
606.7277 3.733273
607.2098 4.150295
607.6919 4.487946
608.1740 4.501099
608.6561 4.042576
609.1382 4.075951
609.6204 5.228809
610.1025 6.154877
610.5846 6.299896
611.0667 6.030140
611.5488 5.789459
612.0309 5.691784
612.5131 5.789997
612.9952 6.163467
613.4773 6.772152
613.9594 7.638767
614.4415 8.852638
614.9236 9.623344
615.4058 9.232040
615.8879 8.123184
616.3700 7.759594
616.8521 8.509003
617.3342 9.153793
617.8163 9.198994
618.2985 8.863792
618.7806 9.789478
619.2627 10.40913
619.7448 10.73920
620.2269 9.912178
620.7090 10.57943
621.1912 10.64801
621.6733 10.69201
622.1554 11.56982
622.6375 10.91156
623.1196 11.77652
623.6017 11.52208
624.0839 11.08524
624.5660 10.80602
625.0481 11.08070
625.5302 11.35212
626.0123 10.91737
626.4944 9.996582
626.9766 9.349609
627.4587 9.157948
627.9408 9.201538
628.4229 9.326305
628.9050 9.527100
629.3871 9.526226
629.8693 9.047478
630.3514 8.748817
630.8335 8.893799
631.3156 9.191078
631.7977 9.373173
632.2798 9.399834
632.7620 9.363663
633.2441 9.327496
633.7262 9.314651
634.2083 9.402008
634.6904 9.613113
635.1725 9.765457
635.6547 9.666306
636.1368 9.612679
636.6189 10.01874
637.1010 10.83523
637.5831 11.36144
638.0652 11.13457
638.5474 10.73084
639.0295 10.60992
639.5116 10.70796
639.9937 10.81120
640.4758 10.84825
640.9579 10.94013
641.4401 11.27591
641.9222 11.89604
642.4043 12.25128
642.8864 12.04253
643.3685 11.94115
643.8506 12.06824
644.3328 12.37687
644.8149 12.82774
645.2970 13.40567
645.7791 14.07309
646.2612 14.86087
646.7433 15.69542
647.2255 16.44615
647.7076 17.11885
648.1897 17.49175
648.6718 17.33229
649.1539 17.00230
649.6360 17.12349
650.1182 17.75678
650.6003 18.49239
651.0824 19.31884
651.5645 20.24843
652.0466 21.37385
652.5287 22.55624
653.0109 23.52676
653.4930 24.19858
653.9751 24.81250
654.4572 25.72854
654.9393 26.95860
655.4214 27.92059
655.9036 28.29848
656.3857 29.02866
656.8678 31.10482
657.3499 33.48450
657.8320 34.91953
658.3141 35.19492
658.7963 35.44385
659.2784 36.04517
659.7605 36.96366
660.2426 38.21800
660.7247 39.76543
661.2068 41.53414
661.6890 43.51689
662.1711 45.50595
662.6532 47.09628
663.1353 48.11438
663.6174 49.36647
664.0995 50.95325
664.5817 52.67881
665.0638 54.65307
665.5459 56.66231
666.0280 58.34683
666.5101 59.61327
666.9922 60.94309
667.4744 63.00281
667.9565 65.38081
668.4386 66.92105
668.9207 67.54658
669.4028 68.44772
669.8849 70.35195
670.3671 72.71458
670.8492 74.42256
671.3313 75.37910
671.8134 75.88205
672.2955 75.69044
672.7776 75.28764
673.2598 74.85164
673.7419 74.40575
674.2240 73.98407
674.7061 73.59486
675.1882 73.08578
675.6703 72.30621
676.1525 71.25206
676.6346 69.84128
677.1167 67.99036
677.5988 66.04024
678.0809 64.07880
678.5630 62.14418
679.0452 60.35118
679.5273 58.76857
680.0094 56.97412
680.4915 54.89790
680.9736 52.53266
681.4557 49.56616
681.9379 46.33973
682.4200 43.60126
682.9021 41.65630
683.3842 40.19340
683.8663 38.87749
684.3484 37.76587
684.8306 36.16114
685.3127 33.64214
685.7948 31.36451
686.2769 30.08498
686.7590 29.13921
687.2411 27.73855
687.7233 25.78433
688.2054 24.03468
688.6875 22.98240
689.1696 22.18159
689.6517 21.20468
690.1339 20.09075
690.6160 18.97865
691.0981 17.91974
691.5802 16.96663
692.0623 16.15272
692.5444 15.49766
693.0266 14.89996
693.5087 14.37785
693.9908 13.89561
694.4729 13.49899
694.9550 13.10212
695.4371 12.54633
695.9193 11.83456
696.4014 11.28570
696.8835 11.37451
697.3656 11.54715
697.8477 10.94540
698.3298 9.712372
698.8120 8.530136
699.2941 7.619164
699.7762 7.046539
700.2583 6.994637
700.7404 7.543922
701.2225 7.597954
701.7047 6.496780
702.1868 5.710075
702.6689 5.740128
703.1510 6.039101
703.6331 6.065247
704.1152 5.791862
704.5974 5.580864
705.0795 5.758492
705.5616 6.056175
706.0437 6.025795
706.5258 5.713264
707.0079 5.407379
707.4901 5.184929
707.9722 4.997753
708.4543 4.785736
708.9364 4.551010
709.4185 4.419506
709.9006 4.615051
710.3828 4.609047
710.8649 4.143925
711.3470 3.579033
711.8291 3.205246
712.3112 3.025852
712.7933 2.888481
713.2755 2.664021
713.7576 2.513416
714.2397 2.820015
714.7218 3.487514
715.2039 3.807796
715.6860 3.604553
716.1682 3.234417
716.6503 2.948074
717.1324 2.740051
717.6145 2.574440
718.0966 2.449135
718.5787 2.368099
719.0609 2.327541
719.5430 2.335644
720.0251 2.485912
720.5072 2.683353
720.9893 2.701450
721.4714 2.423145
721.9536 1.994503
722.4357 1.538971
722.9178 1.081680
723.3999 0.8207360
723.8820 0.8022770
724.3641 0.7887650
724.8463 0.6098210
725.3284 0.3636170
725.8105 0.3098910
726.2926 0.5055690
726.7747 0.7470660
727.2568 1.244640
727.7390 1.548470
728.2211 1.301987
728.7032 0.7574770
729.1853 0.3122180
729.6674 0.1030730
730.1495 7.6053999E-02
730.6317 0.3003540
731.1138 0.6663320
731.5959 0.6855620
732.0780 0.3090170
732.5601 0.1023100
733.0422 0.3817750
733.5244 0.7784730
734.0065 0.7029500
734.4886 2.1725001E-02
734.9707 0.3030620
735.4528 0.1490170
735.9349 0.4525380
736.4171 0.1397930
736.8992 0.3990520
737.3813 0.7851520
737.8634 0.9239540
738.3455 0.8351210
738.8276 0.4388850
739.3098 8.1432000E-02
739.7919 0.3894770
740.2740 0.4843410
740.7561 0.3153690
741.2382 0.1952550
741.7203 0.7326160
742.2025 1.026806
742.6846 1.090355
743.1667 1.036964
743.6488 0.7969210
744.1309 0.5381240
744.6130 0.1196330
745.0952 0.1978870
745.5773 1.2897000E-02
746.0594 0.4955750
746.5415 0.4881100
747.0236 0.4433330
747.5057 1.422558
747.9879 1.208515
748.4700 0.1632310
748.9521 0.3269310
749.4342 9.4902001E-02
749.9163 0.2242850
750.3984 0.2620850
750.8806 0.1556320
751.3627 0.1996840
751.8448 0.3696100
752.3269 0.6890950
752.8090 1.590252
753.2911 2.182449
753.7733 1.757309
754.2554 0.9779320
754.7375 0.8386650
755.2196 1.522213
755.7017 2.127762
756.1838 1.816406
756.6660 1.090439
757.1481 0.7222210
757.6302 0.6998210
758.1123 0.9568370
758.5944 1.501568
759.0765 2.043793
759.5587 2.254322
760.0408 2.140240
760.5229 1.988983
761.0050 1.711323
761.4871 1.558128
761.9692 1.649685
762.4514 1.771622
762.9335 1.721085
763.4156 1.558601
763.8977 1.547283
764.3798 1.863377
764.8619 2.225452
765.3441 2.344231
765.8262 2.351036
766.3083 2.564930
766.7904 2.981308
767.2725 3.227802
767.7546 3.056423
768.2368 2.626057
768.7189 2.282578
769.2010 1.987774
769.6831 1.963608
770.1652 2.470135
770.6473 2.839539
771.1295 2.676891
771.6116 2.293415
772.0937 2.071667
772.5758 2.062889
773.0579 2.066639
773.5400 2.017483
774.0222 1.954914
774.5043 1.908844
774.9864 1.843441
775.4685 1.655106
775.9506 1.343151
776.4327 1.114941
776.9149 1.177505
777.3970 1.220983
777.8791 1.496114
778.3612 1.622558
778.8433 1.608303
779.3254 1.031953
779.8076 1.181417
780.2897 1.040023
780.7718 0.8866922
781.2539 1.138332
781.7360 0.6437288
782.2181 0.8889537
782.7003 0.8388313
783.1824 1.042191
783.6645 0.7719080
784.1466 0.1923180
784.6287 2.7179999E-02
785.1108 0.4094770
785.5930 0.9864770
786.0751 1.041756
786.5572 0.7184070
787.0393 0.5557560
787.5214 0.5721440
788.0035 0.5626410
788.4857 0.4016950
788.9678 0.2962720
789.4499 0.6107750
789.9320 1.461025
790.4141 1.818089
790.8962 1.158283
791.3784 0.6984750
791.8605 0.8546790
792.3426 1.193085
792.8247 1.324474
793.3068 1.260849
793.7889 1.214279
794.2711 1.327160
794.7532 1.413300
795.2353 1.253212
795.7174 0.9540790
796.1995 0.7169460
796.6816 0.5844270
797.1638 0.5517460
797.6459 0.6071280
798.1280 0.7490160
798.6101 1.026772
799.0922 1.552265
799.5743 1.689159
800.0565 1.226925
800.5386 0.7285270
801.0207 0.4623340
801.5028 0.2940830
801.9849 5.1647000E-02
802.4670 0.2686650
802.9492 0.5104480
803.4313 0.7372130
803.9134 0.7521100
804.3955 0.1865160
804.8776 0.6019360
805.3597 1.090115
805.8419 1.176670
806.3240 0.9980890
806.8061 0.6188890
807.2882 0.1619490
807.7703 0.1958690
808.2524 0.4541740
808.7346 0.4312250
809.2167 3.3916000E-02
809.6988 0.3553540
810.1809 0.4828530
810.6630 0.4299770
811.1451 0.4013290
811.6273 0.3820760
812.1094 0.3916590
812.5915 0.3833580
813.0736 0.4648130
813.5557 0.8102760
814.0378 1.204475
814.5200 1.345402
815.0021 1.196190
815.4842 1.019825
815.9663 0.9277040
816.4484 0.9316750
816.9305 1.187500
817.4127 1.525875
817.8948 1.447132
818.3769 0.8841710
818.8590 0.3025130
819.3411 6.6223003E-02
819.8232 0.1210440
820.3054 0.3573490
820.7875 0.8736310
821.2696 1.103958
821.7517 0.7813800
822.2338 0.5266190
822.7159 0.8645360
823.1981 1.438694
823.6802 1.567791
824.1623 1.118565
824.6444 0.7936820
825.1265 0.9016910
825.6086 0.9874270
826.0908 0.6300770
826.5729 0.1787870
827.0550 0.1476330
827.5371 0.2965106
828.0192 0.8900787
828.5013 1.334931
828.9835 1.639187
829.4656 1.381247
829.9477 1.849184
830.4298 1.156265
830.9119 0.5117110
831.3940 0.1889270
831.8762 0.4098360
832.3583 0.9811100
832.8404 1.408455
833.3225 1.743031
833.8046 1.816181
834.2867 1.406090
834.7689 0.9425960
835.2510 0.3846590
835.7331 1.5884001E-02
836.2152 0.1594770
836.6973 0.9282610
837.1794 1.490139
837.6616 1.488457
838.1437 1.316463
838.6258 1.116451
839.1079 0.9386220
839.5900 0.8286480
840.0721 0.8063470
840.5543 0.9333150
841.0364 1.277531
841.5185 1.658421
842.0006 1.801918
842.4827 1.706421
842.9648 1.294247
843.4470 0.4962010
843.9291 1.7979000E-02
844.4112 0.1198650
844.8933 0.6655690
845.3754 1.266281
845.8575 1.982327
846.3397 2.346951
846.8218 2.176929
847.3039 1.901070
847.7860 1.321800
848.2681 0.8826870
848.7502 1.142349
849.2324 1.909653
849.7145 2.307171
850.1966 1.873375
850.6787 1.430676
851.1608 1.378532
851.6429 1.471294
852.1251 1.530327
852.6072 1.540039
853.0893 1.517807
853.5714 1.472431
854.0535 1.435650
854.5356 1.461521
855.0178 1.530155
855.4999 1.545536
855.9820 1.505516
856.4641 1.465172
856.9462 1.416080
857.4283 1.487843
857.9105 1.904789
858.3926 2.565224
858.8747 2.632084
859.3568 1.490368
859.8389 0.8428230
860.3210 1.248562
860.8032 1.632877
861.2853 1.358292
861.7674 0.7607800
862.2495 0.4139820
862.7316 0.4023510
863.2137 0.6148300
863.6959 1.325172
864.1780 1.938820
864.6601 1.823685
865.1422 1.355484
865.6243 1.214386
866.1064 1.474998
866.5886 1.679760
867.0707 1.497356
867.5528 1.141426
868.0349 0.8446500
868.5170 0.6502760
868.9991 0.9013440
869.4813 1.663628
869.9634 2.198318
870.4455 2.067333
870.9276 1.577732
871.4097 1.290680
871.8918 1.238941
872.3740 1.126835
872.8561 0.8919790
873.3382 0.7300760
873.8203 0.6200070
874.3024 0.6056790
874.7845 0.7907980
875.2667 1.127335
875.7488 1.419075
876.2309 1.647556
876.7130 1.725006
877.1951 1.562077
877.6772 1.315067
878.1594 0.9859160
878.6415 0.6920240
879.1236 0.6489110
879.6057 0.8929520
880.0878 1.192432
880.5699 1.323132
881.0521 1.333694
881.5342 1.216576
882.0163 1.011631
882.4984 0.9016760
882.9805 0.9344750
883.4626 1.055565
883.9448 1.237682
884.4269 1.394550
884.9090 1.248669
885.3911 0.6736870
885.8732 0.5629580
886.3553 1.206051
886.8375 1.739182
887.3196 1.734970
887.8017 1.464817
888.2838 1.193836
888.7659 0.9321900
889.2480 0.8124200
889.7302 0.9869190
890.2123 1.015774
890.6944 0.4514200
891.1765 3.5500000E-04
891.6586 0.3547780
892.1407 1.260101
892.6229 1.866600
893.1050 1.838413
893.5871 1.625748
894.0692 1.460045
894.5513 1.309383
895.0334 0.9718090
895.5156 0.5812610
895.9977 0.5292660
896.4798 0.8942450
896.9619 1.352264
897.4440 1.665409
897.9261 1.798077
898.4083 1.538242
898.8904 0.9437450
899.3725 0.6898230
899.8546 0.9017030
900.3367 1.122223
900.8188 1.081772
901.3010 0.8660350
901.7831 0.6512110
902.2652 0.4593850
902.7473 0.3705100
903.2294 0.4260410
903.7115 0.4840050
904.1937 0.5020100
904.6758 0.5047570
905.1579 0.4710390
905.6400 0.4281540
906.1221 0.5265500
906.6042 1.091549
907.0864 1.268238
907.5685 0.2988170
908.0506 0.6033480
908.5327 0.5053630
909.0148 0.1799090
909.4969 0.7817080
909.9791 1.121792
910.4612 1.295307
910.9433 1.357830
911.4254 1.290455
911.9075 0.9384540
912.3896 0.4882850
912.8718 0.3346210
913.3539 0.4940380
913.8360 0.7412870
914.3181 0.9584540
914.8002 1.075924
915.2823 0.9384570
915.7644 0.5864940
916.2465 0.2878490
916.7286 4.5237999E-02
917.2108 0.1301500
917.6929 0.2526130
918.1750 0.2455250
918.6571 3.1860001E-02
919.1392 0.3404270
919.6213 0.6365200
920.1035 0.8891530
920.5856 0.9946170
921.0677 0.9254910
921.5498 0.7604220
922.0319 0.3584140
922.5140 5.1082999E-02
922.9962 6.9557004E-02
923.4783 0.3482020
923.9604 0.4734270
924.4425 0.2597270
924.9246 0.7005390
925.4067 0.1698190
925.8889 0.5595250
926.3710 0.8013270
926.8531 0.6701350
927.3352 0.5911100
927.8173 0.7036250
928.2994 0.8711170
928.7816 1.205772
929.2637 1.379700
929.7458 0.8080250
930.2279 0.1384510
930.7100 0.6767580
931.1921 0.6633030
931.6743 0.4428370
932.1564 0.2494700
932.6385 3.6479998E-02
933.1206 0.2496490
933.6027 0.4236260
934.0848 0.7909280
934.5670 0.8688010
935.0491 0.2102510
935.5312 0.2051050
936.0133 2.1645000E-02
936.4954 0.1907920
936.9775 0.4295770
937.4597 0.4811860
937.9418 0.1319080
938.4239 0.1372180
938.9060 0.4209330
939.3881 0.1022610
939.8702 3.0131999E-02
940.3524 0.4401550
940.8345 0.5771260
941.3166 0.1898500
941.7987 0.4923860
942.2808 0.4368170
942.7629 0.2846910
943.2451 0.3316960
943.7272 2.8503001E-02
944.2093 0.2860980
944.6914 0.3456080
945.1735 0.7548520
945.6556 0.1622920
946.1378 0.2071230
946.6199 1.113861
947.1020 0.3660660
947.5841 7.6022997E-02
948.0662 0.2287250
948.5483 0.7817380
949.0305 0.3176420
949.5126 0.4357830
949.9947 0.5688250
950.4768 0.1319660
950.9589 0.7031210
951.4410 1.4938000E-02
951.9232 6.5715998E-02
952.4053 0.4249000
952.8874 0.1818430
953.3695 0.1231080
953.8516 0.6665760
954.3337 0.8794590
954.8159 0.5682640
955.2980 0.9469340
955.7801 9.3924999E-02
956.2622 0.3223950
956.7443 1.017639
957.2264 0.7383380
957.7086 1.129654
958.1907 1.2428000E-02
958.6728 0.1378290
959.1549 0.8943820
959.6370 1.048187
960.1191 0.3942150
960.6013 6.2070000E-03
961.0834 0.1812900
961.5655 0.1463470
962.0476 0.9030650
962.5297 1.354115
963.0118 1.515598
963.4940 0.5198590
963.9761 1.019482
964.4582 0.9206620
964.9403 0.7976460
965.4224 1.506069
965.9045 0.6350520
966.3867 1.293175
966.8688 1.378696
967.3509 1.238300
967.8330 1.984917
968.3151 2.425823
968.7972 2.577457
969.2794 1.572334
969.7615 2.061825
970.2436 1.952896
970.7257 1.819683
971.2078 2.520668
971.6899 1.685787
972.1721 2.374359
972.6542 2.455341
973.1363 2.815002
973.6184 2.572514
974.1005 2.516529
974.5826 3.057476
975.0648 3.257225
975.5469 2.927166
976.0290 3.287823
976.5111 2.427429
976.9932 2.657162
977.4753 3.353813
977.9575 3.076176
978.4396 3.469292
978.9217 3.607620
979.4038 2.586208
979.8859 3.582851
980.3680 3.700069
980.8502 3.515827
981.3323 4.375153
981.8144 4.628284
982.2965 4.337955
982.7786 4.162426
983.2607 4.293171
983.7429 4.470169
984.2250 4.501934
984.7071 4.526638
985.1892 4.937634
985.6713 5.763248
986.1534 5.862907
986.6356 5.057556
987.1177 4.577438
987.5998 4.788963
988.0819 5.342491
988.5640 6.012161
989.0461 6.728745
989.5283 7.150799
990.0104 7.130760
990.4925 7.289745
990.9746 7.738380
991.4567 8.125954
991.9388 8.335541
992.4210 8.405579
992.9031 8.264271
993.3852 7.992794
993.8673 8.035877
994.3494 8.820305
994.8315 9.191757
995.3137 8.394299
995.7958 8.035336
996.2779 9.132813
996.7600 10.69147
997.2421 11.61916
997.7242 11.91771
998.2064 12.22359
998.6885 12.73305
999.1706 13.13044
999.6527 13.16798
1000.135 13.23008
1000.617 13.50288
1001.099 14.02988
1001.581 14.94853
1002.063 16.21933
1002.545 17.32459
1003.028 18.10312
1003.510 18.57647
1003.992 18.38099
1004.474 18.08509
1004.956 18.36071
1005.438 19.03635
1005.920 19.73122
1006.402 20.32226
1006.884 20.95371
1007.367 21.69341
1007.849 22.44625
1008.331 23.09057
1008.813 23.70520
1009.295 24.46542
1009.777 25.36971
1010.259 26.51981
1010.741 27.90932
1011.224 29.09489
1011.706 29.56349
1012.188 29.73491
1012.670 30.19473
1013.152 30.87453
1013.634 31.61984
1014.116 32.41792
1014.598 33.39415
1015.080 34.59089
1015.563 35.67873
1016.045 36.25457
1016.527 36.47934
1017.009 36.70430
1017.491 36.93726
1017.973 37.23761
1018.455 37.60339
1018.937 37.89997
1019.419 37.85269
1019.902 38.60090
1020.384 39.04344
1020.866 39.19677
1021.348 38.19339
1021.830 38.68472
1022.312 38.57772
1022.794 38.44664
1023.276 39.14971
1023.759 38.31723
1024.241 39.00836
1024.723 39.09208
1025.205 39.64366
1025.687 39.83687
1026.169 39.72456
1026.651 39.32293
1027.133 37.76458
1027.615 37.70105
1028.098 37.03790
1028.580 36.35188
1029.062 36.49986
1029.544 35.11216
1030.026 35.24778
1030.508 33.53307
1030.990 32.73681
1031.472 32.13188
1031.955 31.52062
1032.437 30.74085
1032.919 29.91612
1033.401 29.28152
1033.883 28.85888
1034.365 28.41734
1034.847 27.87471
1035.329 27.51673
1035.812 27.63233
1036.294 27.56079
1036.776 26.70651
1037.258 25.51235
1037.740 24.91845
1038.222 25.08320
1038.704 24.75973
1039.186 23.34216
1039.668 22.43520
1040.151 22.84085
1040.633 23.20389
1041.115 22.49763
1041.597 21.25833
1042.079 20.55231
1042.561 20.47126
1043.043 20.28230
1043.525 19.82776
1044.007 19.46140
1044.490 19.46495
1044.972 19.41957
1045.454 18.88800
1045.936 18.10264
1046.418 17.48906
1046.900 17.07668
1047.382 16.88123
1047.864 17.08676
1048.347 17.26590
1048.829 17.44918
1049.311 17.48065
1049.793 16.98211
1050.275 16.35860
1050.757 16.44176
1051.239 17.36940
1051.721 17.58540
1052.203 16.01068
1052.686 14.77499
1053.168 14.73869
1053.650 14.97315
1054.132 14.96262
1054.614 14.76641
1055.096 14.44558
1055.578 14.00787
1056.060 13.68533
1056.542 13.51653
1057.025 13.52231
1057.507 13.98388
1057.989 14.27956
1058.471 13.68634
1058.953 12.75094
1059.435 12.27612
1059.917 12.36130
1060.399 12.39569
1060.882 12.06078
1061.364 11.80178
1061.846 11.90897
1062.328 12.02006
1062.810 11.65619
1063.292 10.67385
1063.774 11.29846
1064.256 11.61664
1064.739 11.64415
1065.221 10.51414
1065.703 10.87791
1066.185 10.64253
1066.667 10.38367
1067.149 10.96407
1067.631 10.00135
1068.113 10.54948
1068.595 10.48835
1069.078 10.70806
1069.560 10.34542
1070.042 9.929314
1070.524 9.837814
1071.006 9.759098
1071.488 9.684349
1071.970 9.510723
1072.452 8.973099
1072.934 8.189251
1073.417 7.712044
1073.899 7.842739
1074.381 8.086628
1074.863 8.396198
1075.345 8.545345
1075.827 8.168652
1076.309 7.656895
1076.791 7.598072
1077.274 7.889442
1077.756 7.893932
1078.238 7.334984
1078.720 6.857502
1079.202 6.846436
1079.684 6.919456
1080.166 6.938629
1080.648 6.829971
1081.130 6.427277
1081.613 5.851513
1082.095 5.420979
1082.577 5.191727
1083.059 5.131462
1083.541 5.299232
1084.023 5.549282
1084.505 6.015396
1084.987 6.312241
1085.469 5.859207
1085.952 4.969463
1086.434 4.450554
1086.916 4.473087
1087.398 4.489902
1087.880 4.248882
1088.362 3.977470
1088.844 3.746563
1089.326 3.560772
1089.808 3.468620
1090.291 3.410976
1090.773 3.241024
1091.255 2.954834
1091.737 2.826145
1092.219 3.163727
1092.701 3.385303
1093.183 3.206169
1093.665 2.890320
1094.148 2.681068
1094.630 2.444672
1095.112 1.857506
1095.594 0.9676550
1096.076 0.3912090
1096.558 0.3990970
1097.040 0.5486180
1097.522 0.9618300
1098.005 1.180843
1098.487 0.7701110
1098.969 0.1494520
1099.451 0.2552030
1099.933 0.4064220
1100.415 0.3226620
1100.897 0.2009580
1101.379 0.3431400
1101.861 0.5786210
1102.344 1.334801
1102.826 1.307632
1103.308 0.9613340
1103.790 0.6437230
1104.272 0.3923490
1104.754 0.2066420
1105.236 7.9581998E-02
1105.718 7.2250001E-02
1106.200 0.4547350
1106.683 0.6032560
1107.165 5.0514001E-02
1107.647 0.5083500
1108.129 0.5136870
1108.611 0.2144010
1109.093 8.6750001E-02
1109.575 0.1671560
1110.057 0.2355460
1110.540 0.4013400
1111.022 0.3669850
1111.504 0.1973530
1111.986 0.6439480
1112.468 0.4662210
1112.950 0.1054920
1113.432 0.2971920
1113.914 0.9787290
1114.396 1.032169
1114.879 0.3478320
1115.361 0.9574390
1115.843 5.7850000E-02
1116.325 0.5779150
1116.807 0.1019860
1117.289 0.6324960
1117.771 0.8474960
1118.253 0.6517260
1118.735 0.4586490
1119.218 0.2531890
1119.700 0.1125410
1120.182 4.2121999E-02
1120.664 5.8630002E-03
1121.146 7.3090000E-03
1121.628 2.6164999E-02
1122.110 4.9582999E-02
1122.592 7.5580999E-02
1123.075 9.8598003E-02
1123.557 0.1188550
1124.039 0.1121750
1124.521 2.1190999E-02
1125.003 0.1697500
1125.485 0.7498170
1125.967 1.065556
1126.449 0.6767350
1126.932 3.1143000E-02
1127.414 0.3034320
1127.896 0.3336260
1128.378 3.2806002E-02
1128.860 0.9048190
1129.342 0.9255830
1129.824 0.1614610
1130.306 0.7297550
1130.788 0.1146050
1131.271 0.6743050
1131.753 0.6868670
1132.235 0.2223820
1132.717 1.7810001E-03
1133.199 1.9268000E-02
1133.681 0.2462580
1134.163 0.6708410
1134.645 1.067162
1135.127 1.378609
1135.610 1.447628
1136.092 1.154541
1136.574 0.7604830
1137.056 0.6476020
1137.538 0.7523000
1138.020 0.9198720
1138.502 1.113918
1138.984 1.089588
1139.467 0.4018480
1139.949 1.133217
1140.431 1.558182
1140.913 1.693192
1141.395 0.6707380
1141.877 1.142136
1142.359 1.014477
1142.841 0.8655200
1143.323 1.546177
1143.806 0.6903000
1144.288 1.357040
1144.770 1.417683
1145.252 1.754196
1145.734 1.488495
1146.216 1.409294
1146.698 1.931023
1147.180 2.121548
1147.662 1.784508
1148.145 2.136868
1148.627 1.256859
1149.109 1.457649
1149.591 2.124584
1150.073 1.816376
1150.555 1.208435
1151.037 1.940117
1151.519 2.365395
1152.002 2.500729
1152.484 1.478588
1152.966 1.950340
1153.448 1.822968
1153.930 1.670712
1154.412 2.351837
1154.894 1.496399
1155.376 2.163651
1155.859 2.188061
1156.341 1.848099
1156.823 1.540276
1157.305 1.618011
1157.787 1.799740
1158.269 1.763691
1158.751 1.596367
1159.233 1.596745
1159.715 1.814922
1160.198 1.952114
1160.680 2.150841
1161.162 2.168148
1161.644 1.644497
1162.126 1.322113
1162.608 1.810493
1163.090 2.570671
1163.572 2.793049
1164.054 2.481487
1164.537 2.208622
1165.019 2.069477
1165.501 1.779682
1165.983 1.190742
1166.465 0.8750570
1166.947 1.080322
1167.429 1.506451
1167.911 1.929527
1168.394 2.299587
1168.876 2.486485
1169.358 2.469803
1169.840 2.352898
1170.322 2.175060
1170.804 2.005455
1171.286 1.819206
1171.768 1.760281
1172.250 1.970890
1172.733 2.295601
1173.215 2.395542
1173.697 2.292747
1174.179 1.912975
1174.661 1.451889
1175.143 1.441872
1175.625 1.753006
1176.107 1.657536
1176.589 1.035782
1177.072 0.6505510
1177.554 1.039993
1178.036 1.590797
1178.518 1.497620
1179.000 1.264141
1179.482 1.686646
1179.964 2.362495
1180.446 2.659927
1180.929 2.539082
1181.411 2.075859
1181.893 1.321297
1182.375 0.8626560
1182.857 1.293392
1183.339 1.805981
1183.821 2.025513
1184.303 2.031925
1184.786 1.709934
1185.268 1.303883
1185.750 1.052750
1186.232 1.064480
1186.714 1.167557
1187.196 1.869530
1187.678 2.229389
1188.160 2.263317
1188.642 1.178101
1189.125 1.616627
1189.607 1.456394
1190.089 1.259323
1190.571 1.883747
1191.053 0.9724960
1191.535 1.594841
1192.017 1.619938
1192.499 1.928066
1192.981 1.635143
1193.464 1.528358
1193.946 1.223743
1194.428 0.7891650
1194.910 0.5206680
1195.392 0.8727570
1195.874 1.506752
1196.356 1.536667
1196.838 1.030113
1197.321 1.073795
1197.803 1.635620
1198.285 1.787540
1198.767 1.416286
1199.249 1.050854
1199.731 0.9577140
1200.213 0.3095660
1200.695 1.010349
1201.177 1.411930
1201.660 1.513412
1202.142 0.4659230
1202.624 0.9129450
1203.106 0.7623980
1203.588 0.5859990
1204.070 1.242535
1204.552 0.3647270
1205.034 1.011730
1205.516 0.9395290
1205.999 1.165524
1206.481 1.478600
1206.963 1.430981
1207.445 1.281353
1207.927 1.266319
1208.409 1.337837
1208.891 1.415627
1209.373 1.475975
1209.856 1.482944
1210.338 1.295048
1210.820 1.325676
1211.302 2.019211
1211.784 2.427013
1212.266 1.939064
1212.748 1.357883
1213.230 1.299767
1213.713 1.497524
1214.195 0.5909650
1214.677 1.225670
1215.159 1.554897
1215.641 1.595337
1216.123 0.4784430
1216.605 0.8549000
1217.087 0.6316800
1217.569 1.614048
1218.052 1.900593
1218.534 1.780571
1219.016 1.462418
1219.498 1.371265
1219.980 1.431637
1220.462 1.195629
1220.944 0.7641140
1221.426 0.5620570
1221.908 0.6373020
1222.391 0.9692540
1222.873 1.505474
1223.355 1.774761
1223.837 1.305626
1224.319 0.6615790
1224.801 0.3534200
1225.283 0.2509190
1225.765 0.2343750
1226.248 0.2975690
1226.730 0.5395770
1227.212 0.8673630
1227.694 0.9445570
1228.176 0.6511040
1228.658 0.5888400
1229.140 1.407227
1229.622 1.813179
1230.104 0.9919550
1230.587 0.1486890
1231.069 2.8008001E-02
1231.551 0.1078150
1232.033 0.1999240
1232.515 0.2637180
1232.997 0.3744470
1233.479 0.5259900
1233.961 0.7782780
1234.443 1.214428
1234.926 1.406216
1235.408 1.246750
1235.890 0.9215130
1236.372 0.4738240
1236.854 0.2408520
1237.336 0.6819310
1237.818 1.420067
1238.300 1.377666
1238.783 0.8212430
1239.265 0.9039800
1239.747 1.436241
1240.229 1.383907
1240.711 0.7254870
1241.193 0.4493560
1241.675 0.9742970
1242.157 1.438293
1242.640 0.9852140
1243.122 0.3971100
1243.604 0.3657150
1244.086 0.5293310
1244.568 0.5911940
1245.050 0.5846290
1245.532 0.6078990
1246.014 0.6578450
1246.496 0.6272200
1246.979 0.4489020
1247.461 0.4153980
1247.943 0.7449650
1248.425 0.9653820
1248.907 0.9196360
1249.389 0.8474850
1249.871 0.8726810
1250.353 0.8956990
1250.835 0.7823180
1251.318 0.6007770
1251.800 0.6396370
1252.282 0.9189640
1252.764 1.109222
1253.246 1.209606
1253.728 1.242428
1254.210 1.214565
1254.692 1.112209
1255.175 0.9294320
1255.657 0.7847670
1256.139 0.8085370
1256.621 0.9366460
1257.103 1.189484
1257.585 1.371246
1258.067 0.9428330
1258.549 0.3057210
1259.031 0.4005200
1259.514 1.059891
1259.996 1.337166
1260.478 0.9529530
1260.960 0.6360240
1261.442 0.9248540
1261.924 1.004398
1262.406 9.7378001E-02
1262.888 0.5013770
1263.370 0.4148220
1263.853 1.519154
1264.335 1.270695
1264.817 0.2817190
1265.299 0.1143340
1265.781 0.8302570
1266.263 1.237762
1266.745 1.287136
1267.227 1.256824
1267.710 1.163536
1268.192 1.073849
1268.674 1.014050
1269.156 0.8984680
1269.638 0.6460420
1270.120 0.3827900
1270.602 0.3134610
1271.084 0.3804590
1271.567 0.4925380
1272.049 0.6217880
1272.531 0.7093090
1273.013 0.7648890
1273.495 0.8095660
1273.977 0.8453980
1274.459 0.6725200
1274.941 0.6266560
1275.423 0.5166240
1275.906 4.8733000E-02
1276.388 0.1051030
1276.870 0.8337020
1277.352 1.712425
1277.834 1.410759
1278.316 0.6115340
1278.798 0.4965170
1279.280 0.9350810
1279.762 0.9487270
1280.245 0.3459890
1280.727 0.1871150
1281.209 0.4184420
1281.691 0.5871090
1282.173 0.3815690
1282.655 0.1334500
1283.137 1.0956000E-02
1283.619 4.0146001E-02
1284.102 0.5338970
1284.584 0.8779450
1285.066 0.6776080
1285.548 0.0000000E+00
