#Shining_header
#Data type:raman_database
#CAS:Not entered
#Material scientific name:Mooreite
#Manufacturer:Not entered
#Laser model:Not entered
#Spectrometer model:Not entered
#Testing unit:Not entered
#Test time:Not entered
#Other experimental details:Not entered
#Shining_data
107.9303 0.0000000E+00
108.4124 6.4119004E-02
108.8945 5.9916001E-02
109.3766 0.1067450
109.8588 0.1660210
110.3409 0.4257580
110.8230 0.5135630
111.3051 0.4459800
111.7872 0.2425820
112.2693 3.0384000E-02
112.7515 5.5190001E-02
113.2336 4.9878001E-02
113.7157 0.2724070
114.1978 0.5542240
114.6799 0.8560510
115.1620 1.103527
115.6442 1.251526
116.1263 1.303571
116.6084 1.308262
117.0905 1.232508
117.5726 1.140593
118.0547 1.072813
118.5369 1.041660
119.0190 1.031655
119.5011 1.002139
119.9832 0.8875590
120.4653 0.9176340
120.9474 1.137551
121.4296 1.477365
121.9117 1.929094
122.3938 2.490214
122.8759 3.085952
123.3580 3.477448
123.8401 3.479935
124.3223 3.477589
124.8044 3.445627
125.2865 3.425881
125.7686 3.480964
126.2507 3.654360
126.7328 3.947771
127.2150 4.293410
127.6971 4.685307
128.1792 5.249063
128.6613 5.917051
129.1434 6.660754
129.6255 7.457476
130.1077 8.317450
130.5898 9.215457
131.0719 10.05370
131.5540 11.06702
132.0361 11.92275
132.5182 12.25343
133.0004 11.99664
133.4825 11.36887
133.9646 10.37659
134.4467 9.141996
134.9288 7.914596
135.4109 6.763305
135.8931 5.709391
136.3752 4.757435
136.8573 3.878311
137.3394 3.169663
137.8215 2.721810
138.3036 2.480852
138.7858 2.285471
139.2679 1.989681
139.7500 1.572695
140.2321 1.231115
140.7142 0.9927270
141.1963 0.8093930
141.6785 0.6777860
142.1606 0.5915050
142.6427 0.5322510
143.1248 0.4793130
143.6069 0.4387990
144.0890 0.3835330
144.5712 0.2881770
145.0533 0.1996320
145.5354 0.1672990
146.0175 0.1958580
146.4996 0.2313880
146.9817 0.1772000
147.4639 6.8388000E-02
147.9460 0.2428480
148.4281 0.3083210
148.9102 0.3060630
149.3923 0.2826100
149.8744 0.2534880
150.3566 0.2202440
150.8387 0.1890200
151.3208 0.1696410
151.8029 0.1406150
152.2850 8.3793998E-02
152.7671 7.8349998E-03
153.2493 5.9041001E-02
153.7314 0.1070840
154.2135 0.1362460
154.6956 0.1501050
155.1777 0.1417750
155.6598 0.1339830
156.1420 0.1422500
156.6241 0.1664330
157.1062 0.2065550
157.5883 0.2771480
158.0704 0.3580000
158.5525 0.4356780
159.0347 0.5100350
159.5168 0.5716990
159.9989 0.6019240
160.4810 0.5868530
160.9631 0.5734330
161.4452 0.6053280
161.9274 0.6335330
162.4095 0.5954360
162.8916 0.4536310
163.3737 0.2566290
163.8558 0.1663780
164.3379 0.2646610
164.8201 0.3730760
165.3022 0.4768130
165.7843 0.6159550
166.2664 0.7305820
166.7485 0.8170970
167.2306 0.8770690
167.7128 0.9172990
168.1949 0.9086990
168.6770 0.9118170
169.1591 0.9466430
169.6412 1.003002
170.1233 1.061951
170.6055 1.112607
171.0876 1.162757
171.5697 1.176324
172.0518 1.123657
172.5339 1.068694
173.0160 1.040741
173.4982 1.037402
173.9803 1.041559
174.4624 1.044130
174.9445 1.043234
175.4266 1.027602
175.9087 0.9868450
176.3909 0.9377880
176.8730 0.8874550
177.3551 0.8354920
177.8372 0.7991390
178.3193 0.8007480
178.8014 0.8321340
179.2836 0.8701540
179.7657 0.9229330
180.2478 0.9736140
180.7299 0.9972650
181.2120 0.9909420
181.6941 0.9628440
182.1763 0.8831860
182.6584 0.7864320
183.1405 0.7435180
183.6226 0.8192850
184.1047 0.9746250
184.5868 1.078038
185.0690 1.100862
185.5511 1.110478
186.0332 1.143682
186.5153 1.188742
186.9974 1.222376
187.4795 1.225363
187.9617 1.200300
188.4438 1.183183
188.9259 1.164773
189.4080 1.166585
189.8901 1.196882
190.3722 1.252568
190.8544 1.330599
191.3365 1.439270
191.8186 1.586304
192.3007 1.654076
192.7828 1.538727
193.2649 1.442695
193.7471 1.450892
194.2292 1.544644
194.7113 1.650898
195.1934 1.699365
195.6755 1.674844
196.1576 1.691103
196.6398 1.769564
197.1219 1.857808
197.6040 1.943088
198.0861 2.018064
198.5682 2.068194
199.0503 2.074083
199.5325 2.025310
200.0146 1.993550
200.4967 1.969866
200.9788 1.967581
201.4609 2.007311
201.9430 2.087195
202.4252 2.171507
202.9073 2.228232
203.3894 2.254679
203.8715 2.268266
204.3536 2.266785
204.8357 2.252729
205.3179 2.217486
205.8000 2.159244
206.2821 2.096007
206.7642 2.039603
207.2463 1.991768
207.7284 1.959030
208.2106 1.945443
208.6927 1.946961
209.1748 1.957579
209.6569 1.977443
210.1390 2.009578
210.6211 2.070803
211.1033 2.146391
211.5854 2.201085
212.0675 2.213709
212.5496 2.197503
213.0317 2.175728
213.5138 2.135312
213.9960 2.118835
214.4781 2.164842
214.9602 2.252465
215.4423 2.340869
215.9244 2.408444
216.4065 2.459624
216.8886 2.512484
217.3708 2.578128
217.8529 2.624859
218.3350 2.634152
218.8171 2.617915
219.2992 2.597472
219.7813 2.581636
220.2635 2.570724
220.7456 2.574476
221.2277 2.616227
221.7098 2.644077
222.1919 2.639024
222.6740 2.611199
223.1562 2.579338
223.6383 2.556740
224.1204 2.541576
224.6025 2.517163
225.0846 2.462178
225.5667 2.420282
226.0489 2.434418
226.5310 2.466800
227.0131 2.442013
227.4952 2.295887
227.9773 2.042330
228.4594 1.897359
228.9416 1.996406
229.4237 2.068760
229.9058 2.034572
230.3879 1.928927
230.8700 1.824556
231.3521 1.770560
231.8343 1.763235
232.3164 1.744506
232.7985 1.735472
233.2806 1.694119
233.7627 1.569202
234.2448 1.403040
234.7270 1.283690
235.2091 1.273301
235.6912 1.356773
236.1733 1.387257
236.6554 1.340935
237.1375 1.279110
237.6197 1.213894
238.1018 1.147601
238.5839 1.079624
239.0660 1.007190
239.5481 0.9349720
240.0302 0.8890190
240.5124 0.8775940
240.9945 0.8779690
241.4766 0.8870140
241.9587 0.9042510
242.4408 0.9299550
242.9229 0.9699760
243.4051 1.013897
243.8872 1.022615
244.3693 0.9539220
244.8514 0.8991400
245.3335 0.9176890
245.8156 0.9924780
246.2978 1.064350
246.7799 1.109162
247.2620 1.124126
247.7441 1.107619
248.2262 1.041283
248.7083 0.9880960
249.1905 0.9882880
249.6726 1.032892
250.1547 1.086411
250.6368 1.140488
251.1189 1.181773
251.6010 1.193844
252.0832 1.180282
252.5653 1.178963
253.0474 1.218704
253.5295 1.284672
254.0116 1.318596
254.4937 1.285518
254.9759 1.241092
255.4580 1.247433
255.9401 1.305489
256.4222 1.378397
256.9043 1.460471
257.3864 1.544730
257.8686 1.587665
258.3507 1.561447
258.8328 1.514331
259.3149 1.488571
259.7970 1.482501
260.2791 1.482045
260.7613 1.481922
261.2434 1.481157
261.7255 1.475961
262.2076 1.475107
262.6897 1.455108
263.1718 1.389969
263.6540 1.292261
264.1361 1.206016
264.6182 1.168141
265.1003 1.169854
265.5824 1.159019
266.0645 1.141754
266.5467 1.098895
267.0288 0.9950700
267.5109 0.8611470
267.9930 0.7673010
268.4751 0.7801660
268.9572 0.8679420
269.4394 0.8764300
269.9215 0.7364260
270.4036 0.6198840
270.8857 0.6132390
271.3678 0.6667960
271.8499 0.7034750
272.3321 0.6803620
272.8142 0.6123220
273.2963 0.5447340
273.7784 0.4521740
274.2605 0.4079630
274.7426 0.4683200
275.2248 0.5683580
275.7069 0.6257810
276.1890 0.5985420
276.6711 0.5223090
277.1532 0.4918270
277.6353 0.5376050
278.1175 0.5735720
278.5996 0.5739100
279.0817 0.5624760
279.5638 0.5630430
280.0459 0.5844620
280.5280 0.6157140
281.0102 0.6351430
281.4923 0.6356750
281.9744 0.6389120
282.4565 0.6427690
282.9386 0.6525370
283.4207 0.6713140
283.9029 0.7002310
284.3850 0.7399260
284.8671 0.7952810
285.3492 0.8805200
285.8313 0.9454310
286.3134 1.009353
286.7956 1.040569
287.2777 0.9944700
287.7598 0.8795890
288.2419 0.7627160
288.7240 0.7280960
289.2061 0.8055580
289.6883 0.8577740
290.1704 0.8978310
290.6525 0.9041360
291.1346 0.8521830
291.6167 0.7515730
292.0988 0.6348900
292.5810 0.5271850
293.0631 0.4256240
293.5452 0.3662950
294.0273 0.3884020
294.5094 0.4131450
294.9915 0.4228560
295.4737 0.4144160
295.9558 0.3874990
296.4379 0.3408040
296.9200 0.2751580
297.4021 0.2067900
297.8842 0.1226630
298.3664 4.9764998E-02
298.8485 8.6000000E-05
299.3306 3.6166001E-02
299.8127 7.6779000E-02
300.2948 0.1337060
300.7769 0.1949530
301.2591 0.2097310
301.7412 9.7188003E-02
302.2233 3.4944002E-02
302.7054 7.9400003E-02
303.1875 0.1659220
303.6696 0.2241770
304.1518 0.2254090
304.6339 0.1896760
305.1160 0.1581940
305.5981 0.1187540
306.0802 0.1052070
306.5623 0.1597250
307.0445 0.2134800
307.5266 0.1891410
308.0087 7.7081002E-02
308.4908 4.5550000E-02
308.9729 6.0052000E-02
309.4550 0.1081540
309.9372 0.1961900
310.4193 0.1737790
310.9014 0.1109580
311.3835 3.5737999E-02
311.8656 4.1274998E-02
312.3477 0.1083200
312.8299 0.1487790
313.3120 0.1532790
313.7941 0.1982280
314.2762 0.3530260
314.7583 0.4756780
315.2404 0.4820080
315.7226 0.4053460
316.2047 0.3392750
316.6868 0.3568120
317.1689 0.4502330
317.6510 0.4971800
318.1331 0.4220400
318.6153 0.3844240
319.0974 0.4571290
319.5795 0.5814660
320.0616 0.6601020
320.5437 0.6401780
321.0258 0.5580900
321.5080 0.5352730
321.9901 0.6327400
322.4722 0.7178320
322.9543 0.7960970
323.4364 0.8527410
323.9185 0.8642570
324.4007 0.8252030
324.8828 0.7652030
325.3649 0.7372940
325.8470 0.7676820
326.3291 0.7808190
326.8112 0.7576950
327.2934 0.7337620
327.7755 0.7317910
328.2576 0.7549600
328.7397 0.7951730
329.2218 0.8466700
329.7039 0.9162320
330.1861 0.9626880
330.6682 0.9714570
331.1503 0.9741110
331.6324 0.9797040
332.1145 0.9903900
332.5966 1.007740
333.0788 1.034072
333.5609 1.068158
334.0430 1.091549
334.5251 1.103051
335.0072 1.104118
335.4893 1.086787
335.9715 1.061253
336.4536 1.038376
336.9357 1.023281
337.4178 1.019572
337.8999 1.040305
338.3820 1.117654
338.8642 1.172574
339.3463 1.203963
339.8284 1.212801
340.3105 1.186029
340.7926 1.123534
341.2747 1.057036
341.7568 1.041034
342.2390 1.106488
342.7211 1.150970
343.2032 1.155778
343.6853 1.150387
344.1674 1.156502
344.6495 1.175923
345.1317 1.193398
345.6138 1.185699
346.0959 1.145062
346.5780 1.132462
347.0601 1.174729
347.5422 1.225827
348.0244 1.266552
348.5065 1.308435
348.9886 1.380466
349.4707 1.506688
349.9528 1.664062
350.4349 1.748430
350.9171 1.672086
351.3992 1.662055
351.8813 1.786252
352.3634 1.977201
352.8455 2.177144
353.3276 2.365758
353.8098 2.536525
354.2919 2.673687
354.7740 2.765724
355.2561 2.858509
355.7382 2.987337
356.2203 3.094904
356.7025 3.132793
357.1846 3.104629
357.6667 3.061950
358.1488 3.077057
358.6309 3.155770
359.1130 3.124408
359.5952 2.902206
360.0773 2.666095
360.5594 2.478191
361.0415 2.324677
361.5236 2.178504
362.0057 2.026052
362.4879 1.875568
362.9700 1.747042
363.4521 1.655986
363.9342 1.553373
364.4163 1.392783
364.8984 1.220163
365.3806 1.093909
365.8627 1.039379
366.3448 1.012474
366.8269 0.9375030
367.3090 0.7939710
367.7911 0.6913660
368.2733 0.6910030
368.7554 0.7270050
369.2375 0.7570810
369.7196 0.7779060
370.2017 0.7905270
370.6838 0.7792890
371.1660 0.7555180
371.6481 0.7817180
372.1302 0.8877580
372.6123 0.9991960
373.0944 1.038672
373.5765 1.045260
374.0587 1.112219
374.5408 1.316891
375.0229 1.572281
375.5050 1.738245
375.9871 1.802194
376.4692 1.882364
376.9514 2.079611
377.4335 2.303367
377.9156 2.409984
378.3977 2.346210
378.8798 2.273912
379.3619 2.344617
379.8441 2.516528
380.3262 2.607544
380.8083 2.562157
381.2904 2.427370
381.7725 2.236018
382.2546 1.990685
382.7368 1.776190
383.2189 1.636196
383.7010 1.535014
384.1831 1.422412
384.6652 1.291697
385.1473 1.165972
385.6295 1.061208
386.1116 0.9779330
386.5937 0.9038510
387.0758 0.8483500
387.5579 0.7935540
388.0400 0.7244950
388.5222 0.6463690
389.0043 0.5771520
389.4864 0.5272210
389.9685 0.4883500
390.4506 0.4372380
390.9327 0.3566350
391.4149 0.3024790
391.8970 0.3064310
392.3791 0.3339290
392.8612 0.3484900
393.3433 0.3413640
393.8254 0.3141500
394.3076 0.2662280
394.7897 0.1924540
395.2718 0.1229530
395.7539 5.9716001E-02
396.2360 1.8050000E-03
396.7181 7.0357002E-02
397.2003 0.1399840
397.6824 0.1920050
398.1645 0.2133150
398.6466 0.2102660
399.1287 0.2154240
399.6108 0.2620470
400.0930 0.2758310
400.5751 0.2106730
401.0572 0.1267810
401.5393 9.9762000E-02
402.0214 0.1485590
402.5035 0.2166790
402.9857 0.2170950
403.4678 0.1183730
403.9499 4.1666999E-02
404.4320 5.6840000E-03
404.9141 4.1650001E-02
405.3962 5.1242001E-02
405.8784 5.4326002E-02
406.3605 9.8324001E-02
406.8426 0.2211240
407.3247 0.4144120
407.8068 0.6172750
408.2889 0.8550270
408.7711 1.061957
409.2532 1.210146
409.7353 1.329366
410.2174 1.438235
410.6995 1.542738
411.1816 1.675693
411.6638 1.899505
412.1459 2.232895
412.6280 2.551061
413.1101 2.845932
413.5922 3.110945
414.0743 3.333451
414.5565 3.518325
415.0386 3.687845
415.5207 3.848604
416.0028 4.004887
416.4849 4.177382
416.9670 4.379391
417.4492 4.564167
417.9313 4.697904
418.4134 4.803222
418.8955 4.905869
419.3776 5.011969
419.8597 5.117191
420.3419 5.229316
420.8240 5.344199
421.3061 5.416100
421.7882 5.409016
422.2703 5.384995
422.7524 5.420816
423.2346 5.514087
423.7167 5.611746
424.1988 5.694794
424.6809 5.771165
425.1630 5.826693
425.6451 5.859022
426.1273 5.965437
426.6094 6.236348
427.0915 6.647610
427.5736 7.026642
428.0557 7.347353
428.5378 7.664613
429.0200 7.990964
429.5021 8.331611
429.9842 8.691698
430.4663 9.073115
430.9484 9.484501
431.4305 9.947952
431.9127 10.51418
432.3948 11.00459
432.8769 11.37546
433.3590 11.70034
433.8411 12.05276
434.3232 12.41632
434.8054 12.71119
435.2875 12.87386
435.7696 12.91035
436.2517 12.88238
436.7338 12.77177
437.2159 12.61336
437.6981 12.41834
438.1802 12.17517
438.6623 11.85620
439.1444 11.45710
439.6265 11.01955
440.1086 10.60772
440.5908 10.23602
441.0729 9.843656
441.5550 9.393164
442.0371 8.953143
442.5192 8.546963
443.0013 8.176560
443.4835 7.845160
443.9656 7.570153
444.4477 7.323372
444.9298 7.014703
445.4119 6.608219
445.8940 6.228419
446.3762 5.902550
446.8583 5.627366
447.3404 5.418131
447.8225 5.278709
448.3046 5.164599
448.7867 5.040982
449.2689 4.911054
449.7510 4.781088
450.2331 4.628010
450.7152 4.525171
451.1973 4.569157
451.6794 4.711348
452.1616 4.831248
452.6437 4.888954
453.1258 4.917667
453.6079 4.922605
454.0900 4.913176
454.5721 4.968100
455.0543 5.146723
455.5364 5.375290
456.0185 5.510729
456.5006 5.562734
456.9827 5.531504
457.4648 5.361960
457.9470 5.138607
458.4291 4.954645
458.9112 4.820052
459.3933 4.684602
459.8754 4.504238
460.3575 4.278875
460.8397 4.059669
461.3218 3.858034
461.8039 3.656324
462.2860 3.444372
462.7681 3.228388
463.2502 3.017521
463.7324 2.815436
464.2145 2.623927
464.6966 2.443866
465.1787 2.270674
465.6608 2.127224
466.1429 2.053356
466.6251 1.969536
467.1072 1.831204
467.5893 1.653483
468.0714 1.473621
468.5535 1.309835
469.0356 1.167275
469.5178 1.065720
469.9999 1.022018
470.4820 0.9734840
470.9641 0.8937680
471.4462 0.8092190
471.9283 0.7364930
472.4105 0.6783290
472.8926 0.6347500
473.3747 0.6227380
473.8568 0.6274480
474.3389 0.5868760
474.8210 0.4828580
475.3032 0.3762640
475.7853 0.3050040
476.2674 0.2600960
476.7495 0.2295480
477.2316 0.2264550
477.7137 0.2149000
478.1959 0.1555480
478.6780 6.7206003E-02
479.1601 9.2299999E-04
479.6422 2.8331000E-02
480.1243 2.7303001E-02
480.6064 2.1830001E-03
481.0886 6.6138998E-02
481.5707 0.1183180
482.0528 0.1521770
482.5349 0.1770070
483.0170 0.1931800
483.4991 0.2048850
483.9813 0.2235100
484.4634 0.2563570
484.9455 0.2967310
485.4276 0.3246390
485.9097 0.3284920
486.3918 0.3362060
486.8740 0.3485970
487.3561 0.3645290
487.8382 0.3847340
488.3203 0.4081760
488.8024 0.4333010
489.2845 0.4639490
489.7667 0.4959990
490.2488 0.4822790
490.7309 0.3696400
491.2130 0.2992640
491.6951 0.3313280
492.1772 0.4067620
492.6594 0.4725530
493.1415 0.5152490
493.6236 0.5323050
494.1057 0.5036410
494.5878 0.4375000
495.0699 0.4082170
495.5521 0.4337000
496.0342 0.4773110
496.5163 0.5063300
496.9984 0.5326310
497.4805 0.5863740
497.9626 0.6869770
498.4448 0.8031480
498.9269 0.8325910
499.4090 0.7554500
499.8911 1.055942
500.3732 1.309668
500.8553 1.519150
501.3375 1.552119
501.8196 1.816550
502.3017 1.990753
502.7838 2.161318
503.2659 2.460063
503.7480 2.525325
504.2302 2.824243
504.7123 3.029130
505.1944 3.179525
505.6765 3.299645
506.1586 3.428975
506.6407 3.587608
507.1228 3.722069
507.6049 3.838805
508.0871 3.931162
508.5692 4.001796
509.0513 4.044491
509.5334 4.042650
510.0155 3.980281
510.4977 3.861252
510.9798 3.708578
511.4619 3.508873
511.9440 3.320968
512.4261 3.195191
512.9083 3.072109
513.3904 2.886957
513.8725 2.628585
514.3546 2.376975
514.8367 2.195513
515.3188 2.062882
515.8010 1.914655
516.2831 1.741937
516.7652 1.586347
517.2473 1.473707
517.7294 1.395473
518.2115 1.328048
518.6937 1.296935
519.1758 1.239366
519.6579 1.079716
520.1400 0.8903520
520.6221 0.7940340
521.1042 0.8190380
521.5864 0.9058890
522.0685 0.9971190
522.5506 1.095993
523.0327 1.175115
523.5148 1.224335
523.9969 1.258689
524.4791 1.265320
524.9612 1.273355
525.4433 1.328568
525.9254 1.444759
526.4075 1.581984
526.8896 1.668322
527.3718 1.681675
527.8539 1.756046
528.3360 1.936017
528.8181 2.133568
529.3002 2.325136
529.7823 2.505558
530.2645 2.663693
530.7466 2.785084
531.2287 2.905965
531.7108 3.082685
532.1929 3.310670
532.6750 3.521801
533.1572 3.703959
533.6393 3.857564
534.1214 3.987193
534.6035 4.092488
535.0856 4.154390
535.5677 4.149597
536.0499 4.116979
536.5320 4.072873
537.0141 4.024208
537.4962 3.993030
537.9783 3.992006
538.4604 3.995462
538.9426 3.962506
539.4247 3.904669
539.9068 3.767670
540.3889 3.466008
540.8710 3.173201
541.3531 2.998375
541.8353 2.904198
542.3174 2.784310
542.7995 2.578009
543.2816 2.333270
543.7637 2.165335
544.2458 2.102929
544.7280 2.018553
545.2101 1.886927
545.6922 1.735856
546.1743 1.557930
546.6564 1.369045
547.1385 1.223730
547.6207 1.176790
548.1028 1.162004
548.5849 1.062935
549.0670 0.8838230
549.5491 0.7533790
550.0313 0.7399310
550.5134 0.7637990
550.9955 0.6940620
551.4776 0.5273170
551.9597 0.3920940
552.4418 0.3424060
552.9240 0.3092880
553.4061 0.2143240
553.8882 8.5331000E-02
554.3703 3.0822000E-02
554.8524 0.1125630
555.3345 0.2582250
555.8167 0.2972100
556.2988 0.1421770
556.7809 5.0668001E-02
557.2630 7.0956998E-02
557.7451 0.1007360
558.2272 7.9470001E-02
558.7094 2.0251000E-02
559.1915 3.1535000E-02
559.6736 4.9922001E-02
560.1557 4.8252001E-02
560.6378 5.5877998E-02
561.1199 7.6021999E-02
561.6021 8.3594002E-02
562.0842 6.4250998E-02
562.5663 3.9717998E-02
563.0484 2.7773000E-02
563.5305 2.6714999E-02
564.0126 2.6883001E-02
564.4948 1.4856000E-02
564.9769 9.6960003E-03
565.4590 4.3140002E-02
565.9411 0.1046990
566.4232 0.1474460
566.9053 0.1546050
567.3875 0.1310290
567.8696 7.7441998E-02
568.3517 2.5752001E-02
568.8338 8.9197002E-02
569.3159 9.9365003E-02
569.7980 8.3282001E-02
570.2802 3.9547998E-02
570.7623 1.7368000E-02
571.2444 6.6995002E-02
571.7265 9.9711999E-02
572.2086 0.1138700
572.6907 9.8292999E-02
573.1729 3.7797000E-02
573.6550 9.8510003E-03
574.1371 5.6269001E-02
574.6192 9.5353998E-02
575.1013 8.5010998E-02
575.5834 4.1402001E-02
576.0656 2.2950000E-03
576.5477 3.5817999E-02
577.0298 6.0116999E-02
577.5119 7.5677000E-02
577.9940 8.2776003E-02
578.4761 8.2170002E-02
578.9583 7.3285997E-02
579.4404 5.7948999E-02
579.9225 2.5655000E-02
580.4046 1.8825000E-02
580.8867 1.1182000E-02
581.3688 0.1133170
581.8510 0.2211260
582.3331 0.2463890
582.8152 0.2215170
583.2973 0.1874200
583.7794 0.1587990
584.2615 0.1459590
584.7437 0.1645230
585.2258 0.2169540
585.7079 0.2569040
586.1900 0.2830620
586.6721 0.2974460
587.1542 0.2763210
587.6363 0.2565460
588.1184 0.2875290
588.6005 0.3790070
589.0826 0.4759120
589.5648 0.5242470
590.0469 0.5369360
590.5290 0.5626450
591.0111 0.6064810
591.4932 0.6510080
591.9753 0.6836700
592.4575 0.7120350
592.9396 0.7542190
593.4217 0.8151470
593.9038 0.8770780
594.3859 0.9390400
594.8680 0.9963380
595.3502 1.028651
595.8323 1.045313
596.3144 1.100802
596.7965 1.240367
597.2786 1.427313
597.7607 1.521001
598.2429 1.435230
598.7250 1.413450
599.2071 1.510970
599.6892 1.634608
600.1713 1.727776
600.6534 1.794445
601.1356 1.864965
601.6177 1.950767
602.0998 2.058541
602.5819 2.220999
603.0640 2.438189
603.5461 2.599968
604.0283 2.654905
604.5104 2.680235
604.9925 2.764085
605.4746 2.899049
605.9567 3.025932
606.4388 3.136374
606.9210 3.238495
607.4031 3.329672
607.8852 3.418274
608.3673 3.538023
608.8494 3.694969
609.3315 3.744030
609.8137 3.876665
610.2958 3.946788
610.7779 3.956115
611.2600 3.773064
611.7421 3.803479
612.2242 3.727319
612.7064 3.632390
613.1885 3.649888
613.6706 3.417354
614.1527 3.402807
614.6348 3.280419
615.1169 3.185853
615.5991 2.984407
616.0812 2.871181
616.5633 2.805692
617.0454 2.706909
617.5275 2.593961
618.0096 2.509125
618.4918 2.462581
618.9739 2.403718
619.4560 2.305448
619.9381 2.207229
620.4202 2.144553
620.9023 2.110763
621.3845 2.080234
621.8666 2.040381
622.3487 1.989051
622.8308 1.913358
623.3129 1.787083
623.7950 1.700686
624.2772 1.714554
624.7593 1.714632
625.2414 1.639894
625.7235 1.523391
626.2056 1.431938
626.6877 1.384049
627.1699 1.354552
627.6520 1.341736
628.1341 1.332409
628.6162 1.270567
629.0983 1.137347
629.5804 1.010096
630.0626 0.9559810
630.5447 0.9689590
631.0268 0.9858540
631.5089 1.014065
631.9910 1.025877
632.4731 1.025469
632.9553 1.006350
633.4374 0.9487210
633.9195 0.8618260
634.4016 0.7845900
634.8837 0.7465400
635.3658 0.7364370
635.8480 0.7229840
636.3301 0.7050090
636.8122 0.6905710
637.2943 0.6736460
637.7764 0.6566230
638.2585 0.6421890
638.7407 0.6327650
639.2228 0.6162260
639.7049 0.5740440
640.1870 0.5347270
640.6691 0.5279980
641.1512 0.5419850
641.6334 0.5282040
642.1155 0.4795930
642.5976 0.4255790
643.0797 0.3957100
643.5618 0.3897030
644.0439 0.4007590
644.5261 0.4739240
645.0082 0.5064800
645.4903 0.4487120
645.9724 0.3690840
646.4545 0.3279670
646.9366 0.3301860
647.4188 0.3365530
647.9009 0.3083460
648.3830 0.2700210
648.8651 0.2904150
649.3472 0.3714590
649.8293 0.4209370
650.3115 0.3997740
650.7936 0.3475390
651.2757 0.3105760
651.7578 0.2886600
652.2399 0.2781030
652.7220 0.3006850
653.2042 0.3110270
653.6863 0.2709420
654.1684 0.2093510
654.6505 0.1741980
655.1326 0.1771210
655.6147 0.1892710
656.0969 0.1746380
656.5790 0.1363260
657.0611 0.1330450
657.5432 0.1827270
658.0253 0.2292920
658.5074 0.2572150
658.9896 0.2709080
659.4717 0.2710080
659.9538 0.2579890
660.4359 0.2407810
660.9180 0.2227010
661.4001 0.2027490
661.8823 0.1667450
662.3644 0.1260750
662.8465 0.1299080
663.3286 0.1999990
663.8107 0.2805710
664.2928 0.2910780
664.7750 0.2179930
665.2571 0.1663360
665.7392 0.1628430
666.2213 0.1491390
666.7034 7.7737004E-02
667.1855 7.9199998E-03
667.6677 2.1870000E-02
668.1498 0.1271630
668.6319 0.2274250
669.1140 0.2342740
669.5961 0.1840160
670.0782 0.1624860
670.5604 0.1705050
671.0425 0.1682850
671.5246 0.1371560
672.0067 9.3273997E-02
672.4888 5.7638999E-02
672.9709 2.8543999E-02
673.4531 2.0395000E-02
673.9352 5.7813998E-02
674.4173 8.9823000E-02
674.8994 9.2812002E-02
675.3815 7.6631002E-02
675.8636 5.1059000E-02
676.3458 2.1271000E-02
676.8279 1.2760001E-03
677.3100 1.7990000E-03
677.7921 1.6140001E-02
678.2742 3.1895999E-02
678.7563 4.9116001E-02
679.2385 4.9293000E-02
679.7206 1.1892000E-02
680.2027 3.4511000E-02
680.6848 5.5202000E-02
681.1669 4.8455000E-02
681.6490 3.0182000E-02
682.1312 1.7842000E-02
682.6133 5.4972000E-02
683.0954 3.7340000E-02
683.5775 9.1340002E-03
684.0596 2.8966000E-02
684.5417 6.4210002E-03
685.0239 2.3347000E-02
685.5060 1.5276000E-02
685.9881 2.8312000E-02
686.4702 2.6993001E-02
686.9523 5.7519000E-02
687.4344 0.1129010
687.9166 7.1083002E-02
688.3987 1.1355000E-02
688.8808 6.1340001E-03
689.3629 5.4614998E-02
689.8450 9.0369999E-02
690.3271 7.0004001E-02
690.8093 3.6524002E-02
691.2914 3.3488002E-02
691.7735 5.1506002E-02
692.2556 6.3915998E-02
692.7377 6.2665001E-02
693.2198 5.4141998E-02
693.7020 4.4592001E-02
694.1841 4.6193000E-02
694.6662 6.1294999E-02
695.1483 0.1205190
695.6304 0.1354500
696.1125 2.6577000E-02
696.5947 4.0534001E-02
697.0768 1.5445000E-02
697.5589 1.3415000E-02
698.0410 8.5207000E-02
698.5231 5.1135000E-02
699.0052 4.5412999E-02
699.4874 4.8974000E-02
699.9695 9.5085002E-02
700.4516 4.9040001E-02
700.9337 3.1449001E-02
701.4158 0.1060260
701.8979 0.1295510
702.3801 7.2856002E-02
702.8622 0.1216140
703.3443 1.8065000E-02
703.8264 7.5849998E-03
704.3085 0.1045630
704.7906 5.2439999E-02
705.2728 0.1028190
705.7549 0.1141460
706.2370 5.1638000E-02
706.7191 0.1088480
707.2012 0.1617070
707.6833 0.1615780
708.1655 0.1201960
708.6476 0.1063570
709.1297 0.1362130
709.6118 0.1749490
710.0939 0.1980090
710.5760 0.2065090
711.0582 0.2061310
711.5403 0.1877370
712.0224 0.1737480
712.5045 0.1744920
712.9866 0.1729720
713.4688 0.1406960
713.9509 9.6974999E-02
714.4330 9.5872000E-02
714.9151 0.1689940
715.3972 0.2607260
715.8793 0.2959570
716.3615 0.2818660
716.8436 0.2608220
717.3257 0.2351060
717.8078 0.2155870
718.2899 0.2125550
718.7720 0.2181580
719.2542 0.2106500
719.7363 0.1844410
720.2184 0.1598480
720.7005 0.1270660
721.1826 0.1083570
721.6647 0.1253420
722.1469 0.1631970
722.6290 0.1974550
723.1111 0.2186560
723.5932 0.2269890
724.0753 0.2155540
724.5574 0.1890950
725.0396 0.1813500
725.5217 0.2012510
726.0038 0.1957710
726.4859 0.1229520
726.9680 3.1800002E-02
727.4501 7.4419999E-03
727.9323 6.1262999E-02
728.4144 0.1063940
728.8965 0.1353420
729.3786 0.1580370
729.8607 0.1867780
730.3428 0.2079000
730.8250 0.1960400
731.3071 0.1507740
731.7892 0.1048920
732.2713 8.5869998E-02
732.7534 8.7099999E-02
733.2355 9.4991997E-02
733.7177 0.1103960
734.1998 0.1088940
734.6819 7.4607998E-02
735.1640 3.9838001E-02
735.6461 4.3076001E-02
736.1282 8.2006998E-02
736.6104 9.9536002E-02
737.0925 9.1371000E-02
737.5746 6.6795997E-02
738.0567 7.0059998E-03
738.5388 7.3321998E-02
739.0209 6.3262999E-02
739.5031 9.5330002E-03
739.9852 7.1312003E-02
740.4673 7.3591001E-02
740.9494 4.3933999E-02
741.4315 2.1950001E-02
741.9136 8.1759999E-03
742.3958 1.3813000E-02
742.8779 4.4783998E-02
743.3600 7.1920000E-02
743.8421 7.1128003E-02
744.3242 5.3514998E-02
744.8063 5.0544001E-02
745.2885 6.0258999E-02
745.7706 8.0015004E-02
746.2527 0.1303650
746.7348 0.1706440
747.2169 0.1701610
747.6990 0.1430780
748.1812 0.1135560
748.6633 9.0692997E-02
749.1454 8.0960996E-02
749.6275 0.1163580
750.1096 0.1697440
750.5917 0.1217470
751.0739 3.6302000E-02
751.5560 0.1278640
752.0381 6.3431002E-02
752.5202 6.1934002E-02
753.0023 9.2517003E-02
753.4844 5.7040001E-03
753.9666 3.6198001E-02
754.4487 1.1375000E-02
754.9308 5.1403999E-02
755.4129 4.5049999E-02
755.8950 2.7163999E-02
756.3771 2.7457001E-02
756.8593 5.5238999E-02
757.3414 8.9018002E-02
757.8235 0.1245250
758.3056 0.1507490
758.7877 0.1408470
759.2698 0.1047360
759.7520 8.6721003E-02
760.2341 9.6197002E-02
760.7162 0.1286760
761.1983 0.1898990
761.6804 0.2666850
762.1625 0.2827780
762.6447 0.1781570
763.1268 0.1103330
763.6089 9.8025002E-02
764.0910 0.1064520
764.5731 0.1320220
765.0552 0.1611340
765.5374 0.1715350
766.0195 0.1555050
766.5016 0.1270700
766.9837 7.1084000E-02
767.4658 2.1679999E-02
767.9479 5.8736000E-02
768.4301 0.1679460
768.9122 0.2397380
769.3943 0.2249320
769.8764 0.1677540
770.3585 0.1322620
770.8406 0.1191740
771.3228 0.1210530
771.8049 0.1592680
772.2870 0.1783850
772.7691 0.1325400
773.2512 8.4881000E-02
773.7333 0.1057230
774.2155 0.1866770
774.6976 0.2395110
775.1797 0.2043640
775.6618 0.1587680
776.1439 0.1625480
776.6260 0.1899730
777.1082 0.1967040
777.5903 0.1785870
778.0724 0.1671470
778.5545 0.1883030
779.0366 0.2205460
779.5187 0.1918590
780.0009 8.1220001E-02
780.4830 4.6619002E-02
780.9651 0.1400600
781.4472 0.2448690
781.9293 0.3025080
782.4114 0.3211840
782.8936 0.3114040
783.3757 0.2646650
783.8578 0.2231000
784.3399 0.1984670
784.8220 0.1806670
785.3041 0.1463830
785.7863 0.1195260
786.2684 0.1561140
786.7505 0.2646850
787.2326 0.3723690
787.7147 0.4119000
788.1968 0.3936310
788.6790 0.3332150
789.1611 0.2295630
789.6432 0.1693830
790.1253 0.1885500
790.6074 0.2230460
791.0895 0.2079580
791.5717 0.1490890
792.0538 0.1148880
792.5359 0.1107160
793.0180 0.1223210
793.5001 0.1646510
793.9822 0.2075830
794.4644 0.2328440
794.9465 0.2423640
795.4286 0.2439220
795.9107 0.2394390
796.3928 0.2313850
796.8749 0.2258130
797.3571 0.2232910
797.8392 0.2177400
798.3213 0.2107350
798.8034 0.2193690
799.2855 0.2531250
799.7676 0.2818660
800.2498 0.2553070
800.7319 0.1681440
801.2140 0.1331260
801.6961 0.1845320
802.1782 0.2261230
802.6603 0.2222600
803.1425 0.2077330
803.6246 0.2047170
804.1067 0.2138110
804.5888 0.2330380
805.0709 0.2758940
805.5530 0.3089330
806.0352 0.3051800
806.5173 0.2880330
806.9994 0.2916900
807.4815 0.3104550
807.9636 0.3062860
808.4457 0.2571910
808.9279 0.1084460
809.4100 0.2105310
809.8921 0.2684570
810.3742 0.2835510
810.8563 0.1216820
811.3384 0.1883620
811.8206 0.1628720
812.3027 0.1342540
812.7848 0.2331590
813.2669 9.7130999E-02
813.7490 0.1940520
814.2311 0.1980230
814.7133 0.2445650
815.1954 0.1989730
815.6775 0.1818600
816.1596 0.2569430
816.6417 0.2810030
817.1238 0.2248680
817.6060 0.2742130
818.0881 0.1351450
818.5702 0.1614440
819.0523 0.2591030
819.5344 0.2076870
820.0165 0.2588040
820.4987 0.2708920
820.9808 0.1055620
821.4629 0.2488240
821.9450 0.2586540
822.4271 0.1314750
822.9092 0.2642120
823.3914 0.1559550
823.8735 0.1337400
824.3556 0.1762790
824.8377 0.1513450
825.3198 0.2328310
825.8019 0.2118270
826.2841 0.1816780
826.7662 0.1915130
827.2483 8.8106997E-02
827.7304 0.1948310
828.2125 0.1580430
828.6946 0.1926160
829.1768 0.2433720
829.6589 0.1703250
830.1410 0.2294930
830.6231 8.9103997E-02
831.1052 0.1206200
831.5873 0.1310910
832.0695 0.2470300
832.5516 0.1028610
833.0337 0.1234860
833.5158 0.2139610
833.9979 0.2347780
834.4800 0.2357180
834.9622 0.1881810
835.4443 0.1568550
835.9264 0.1339860
836.4085 0.1400360
836.8906 0.2190520
837.3727 0.2969070
837.8549 0.3090260
838.3370 0.2609690
838.8191 0.2076830
839.3012 0.1465200
839.7833 0.1178410
840.2654 0.1688050
840.7476 0.2414860
841.2297 0.2836120
841.7118 0.2935910
842.1939 0.2717820
842.6760 0.2194270
843.1581 0.1704890
843.6403 0.1713690
844.1224 0.2135780
844.6045 0.2633030
845.0866 0.3222680
845.5687 0.3352740
846.0508 0.2741650
846.5330 0.1938410
847.0151 0.1451000
847.4972 0.1284850
847.9793 0.1440020
848.4614 0.2349200
848.9435 0.2878330
849.4257 0.2579860
849.9078 0.2297650
850.3899 0.2738430
850.8720 0.3466310
851.3541 0.3577260
851.8362 0.2797400
852.3184 0.2058480
852.8005 0.2006970
853.2826 0.2104390
853.7647 0.1759190
854.2468 0.1169230
854.7289 7.6995999E-02
855.2111 6.8200998E-02
855.6932 8.3068997E-02
856.1753 0.1213030
856.6574 0.1681750
857.1395 0.1797410
857.6216 0.1562070
858.1038 0.1407040
858.5859 0.1396980
859.0680 0.1475130
859.5501 0.1641370
860.0322 0.1865530
860.5143 0.1962410
860.9965 0.1837420
861.4786 0.1790750
861.9607 0.1921790
862.4428 0.2006060
862.9249 0.1920050
863.4070 0.1802770
863.8892 0.1780550
864.3713 0.1857960
864.8534 0.1959320
865.3355 0.2101370
865.8176 0.2194960
866.2997 0.2179570
866.7819 0.2083160
867.2640 0.1891940
867.7461 0.1650560
868.2282 0.1503690
868.7103 0.1522850
869.1924 0.1589350
869.6746 0.1476640
870.1567 0.1257850
870.6388 0.1359600
871.1209 0.1796300
871.6030 0.2137530
872.0851 0.2232140
872.5673 0.2235750
873.0494 0.2324190
873.5315 0.2476530
874.0136 0.2494710
874.4957 0.2435060
874.9778 0.2134950
875.4600 0.1167780
875.9421 3.8488001E-02
876.4242 3.0117000E-02
876.9063 6.3656002E-02
877.3884 9.2496000E-02
877.8705 0.1102070
878.3527 0.1233710
878.8348 0.1392880
879.3169 0.1459650
879.7990 0.1238740
880.2811 9.3087003E-02
880.7632 8.8196002E-02
881.2454 0.1086640
881.7275 0.1196750
882.2096 9.5518000E-02
882.6917 5.8270998E-02
883.1738 3.6331002E-02
883.6559 2.8357999E-02
884.1381 3.4492001E-02
884.6202 5.3305998E-02
885.1023 6.6933997E-02
885.5844 6.6772997E-02
886.0665 5.5968001E-02
886.5486 3.9234001E-02
887.0308 1.6535999E-02
887.5129 1.8580001E-02
887.9950 8.3575003E-02
888.4771 0.1123730
888.9592 6.6520996E-02
889.4413 7.3079998E-03
889.9235 1.0182000E-02
890.4056 2.5530001E-03
890.8877 7.8300002E-04
891.3698 3.3374999E-02
891.8519 5.8327999E-02
892.3340 7.5405002E-02
892.8162 7.8112997E-02
893.2983 5.5732999E-02
893.7804 1.9819999E-02
894.2625 2.4583001E-02
894.7446 7.1356997E-02
895.2267 8.0780998E-02
895.7089 1.9685000E-02
896.1910 0.1192080
896.6731 7.9200000E-02
897.1552 2.8371001E-02
897.6373 7.3988996E-02
898.1194 4.6153001E-02
898.6016 9.3400001E-04
899.0837 3.7765000E-02
899.5658 6.2789001E-02
900.0479 7.2281003E-02
900.5300 6.7084998E-02
901.0121 4.6923000E-02
901.4943 8.9689996E-03
901.9764 1.9870000E-03
902.4585 5.2391998E-02
902.9406 0.1043060
903.4227 9.5900998E-02
903.9048 3.4942999E-02
904.3870 1.0324000E-02
904.8691 3.9910000E-02
905.3512 5.3665001E-02
905.8333 4.4695999E-02
906.3154 2.7346000E-02
906.7975 1.9210000E-03
907.2797 2.4556000E-02
907.7618 4.1559000E-02
908.2439 4.7804002E-02
908.7260 4.8567001E-02
909.2081 3.0046999E-02
909.6902 2.4034999E-02
910.1724 5.2154999E-02
910.6545 9.6325003E-02
911.1366 0.1552090
911.6187 0.2119120
912.1008 0.2151830
912.5829 0.1289660
913.0651 4.2869002E-02
913.5472 5.4632999E-02
914.0293 0.1133350
914.5114 0.1371420
914.9935 0.1285230
915.4756 0.1202320
915.9578 0.1220320
916.4398 0.1089010
916.9219 4.6314999E-02
917.4041 3.7080001E-02
917.8862 3.4742001E-02
918.3683 5.4556001E-02
918.8504 0.1056940
919.3325 9.7407997E-02
919.8146 6.8806000E-02
920.2968 3.4099001E-02
920.7789 7.1910000E-03
921.2610 1.8696001E-02
921.7431 7.9595998E-02
922.2252 0.1084720
922.7073 7.8997001E-02
923.1895 6.0190000E-02
923.6716 7.3636003E-02
924.1537 9.8025002E-02
924.6358 0.1317860
925.1179 0.1642190
925.6000 0.1566650
926.0822 7.3876999E-02
926.5643 2.4509000E-02
927.0464 7.0740998E-02
927.5285 0.1210910
928.0106 0.1098740
928.4927 7.2172001E-02
928.9749 5.8398999E-02
929.4570 7.7283002E-02
929.9391 0.1138120
930.4212 0.1820530
930.9033 0.2301560
931.3854 0.1882130
931.8676 0.1058770
932.3497 5.4402001E-02
932.8318 3.9926998E-02
933.3139 5.7493001E-02
933.7960 0.1035400
934.2781 0.1412520
934.7603 0.1124650
935.2424 4.5274001E-02
935.7245 3.8040999E-02
936.2066 8.6177997E-02
936.6887 0.1383860
937.1708 0.1847490
937.6530 0.2088170
938.1351 0.1944060
938.6172 0.1600220
939.0993 0.1537020
939.5814 0.1820320
940.0635 0.2009850
940.5457 0.2053630
941.0278 0.2133350
941.5099 0.2299130
941.9920 0.2543020
942.4741 0.2924370
942.9562 0.3409610
943.4384 0.3649250
943.9205 0.3517380
944.4026 0.3343570
944.8847 0.2941110
945.3668 0.2710030
945.8489 0.3040950
946.3311 0.3546820
946.8132 0.3636250
947.2953 0.3265060
947.7774 0.3095720
948.2595 0.3495460
948.7416 0.3979790
949.2238 0.4405200
949.7059 0.4708470
950.1880 0.4703570
950.6701 0.4542270
951.1522 0.4607840
951.6343 0.5039590
952.1165 0.5594150
952.5986 0.6158650
953.0807 0.6691650
953.5628 0.7142530
954.0449 0.7506180
954.5270 0.7908700
955.0092 0.8337250
955.4913 0.8644070
955.9734 0.8760750
956.4555 0.8922040
956.9376 0.9460700
957.4197 1.034128
957.9019 1.152427
958.3840 1.299321
958.8661 1.415963
959.3482 1.482788
959.8303 1.547732
960.3124 1.651384
960.7946 1.792068
961.2767 1.971365
961.7588 2.206759
962.2409 2.383527
962.7230 2.458372
963.2051 2.573142
963.6873 2.800172
964.1694 3.090004
964.6515 3.374332
965.1336 3.652522
965.6157 3.939083
966.0978 4.238394
966.5800 4.544999
967.0621 4.828442
967.5442 5.145160
968.0263 5.529515
968.5084 5.963746
968.9905 6.401740
969.4727 6.833687
969.9548 7.371652
970.4369 8.007974
970.9190 8.790263
971.4011 9.672263
971.8832 10.75448
972.3654 12.11035
972.8475 13.74249
973.3296 15.62872
973.8117 17.74973
974.2938 20.22617
974.7759 22.94460
975.2581 26.24267
975.7402 30.25640
976.2223 35.13866
976.7044 41.07029
977.1865 48.09293
977.6686 56.24262
978.1508 65.62065
978.6329 75.49953
979.1150 86.02026
979.5971 96.06141
980.0792 104.4527
980.5613 110.6206
981.0435 112.9670
981.5256 111.1459
982.0077 105.5929
982.4898 96.39124
982.9719 84.80820
983.4540 72.66414
983.9362 60.30972
984.4183 49.40533
984.9004 40.09819
985.3825 32.44902
985.8646 26.51872
986.3467 21.85764
986.8289 18.05249
987.3110 15.04856
987.7931 12.64385
988.2752 10.87599
988.7573 9.419847
989.2394 8.285382
989.7216 7.291950
990.2037 6.354009
990.6858 5.544963
991.1679 4.987274
991.6500 4.665905
992.1321 4.289696
992.6143 3.815032
993.0964 3.386236
993.5785 3.002278
994.0606 2.685273
994.5427 2.481585
995.0248 2.331773
995.5070 2.136338
995.9891 1.889408
996.4712 1.693941
996.9533 1.591012
997.4354 1.483962
997.9175 1.338994
998.3997 1.206644
998.8818 1.129670
999.3639 1.080750
999.8460 1.007693
1000.328 0.9024110
1000.810 0.8127250
1001.292 0.7573760
1001.774 0.7105800
1002.257 0.6635870
1002.739 0.6200520
1003.221 0.5875730
1003.703 0.5603790
1004.185 0.5240380
1004.667 0.4740640
1005.149 0.4316710
1005.631 0.4162130
1006.114 0.4023450
1006.596 0.3753240
1007.078 0.3379440
1007.560 0.2854760
1008.042 0.2269690
1008.524 0.1851360
1009.006 0.1692000
1009.488 0.1638780
1009.970 0.1666260
1010.453 0.1655190
1010.935 0.1400900
1011.417 0.1038900
1011.899 7.6669000E-02
1012.381 6.4303003E-02
1012.863 7.6918997E-02
1013.345 0.1213430
1013.827 0.1612160
1014.310 0.1500400
1014.792 0.1100470
1015.274 8.2410000E-02
1015.756 6.2661000E-02
1016.238 2.5440000E-02
1016.720 2.7605999E-02
1017.202 5.0483000E-02
1017.684 1.3295000E-02
1018.166 4.4681001E-02
1018.649 6.4753003E-02
1019.131 5.7360999E-02
1019.613 6.7227997E-02
1020.095 8.9023001E-02
1020.577 7.1567997E-02
1021.059 4.9709999E-03
1021.541 4.3970998E-02
1022.023 2.5978001E-02
1022.505 1.9352000E-02
1022.988 7.8959996E-03
1023.470 5.2847002E-02
1023.952 6.1337002E-02
1024.434 1.5872000E-02
1024.916 2.0188000E-02
1025.398 3.0778000E-02
1025.880 2.7859000E-02
1026.362 1.9644000E-02
1026.845 6.6849999E-03
1027.327 1.3420000E-02
1027.809 4.2709999E-02
1028.291 4.7394998E-02
1028.773 2.3934999E-02
1029.255 6.1050002E-03
1029.737 4.0490001E-02
1030.219 6.7555003E-02
1030.702 7.7462003E-02
1031.184 7.2950996E-02
1031.666 5.9516001E-02
1032.148 3.3287998E-02
1032.630 2.0624001E-02
1033.112 2.8166000E-02
1033.594 3.0043000E-02
1034.076 1.7569000E-02
1034.558 5.0500000E-04
1035.041 2.2170000E-02
1035.523 4.0762000E-02
1036.005 3.2178000E-02
1036.487 2.1142000E-02
1036.969 3.6056999E-02
1037.451 1.5269000E-02
1037.933 5.1564001E-02
1038.415 4.3690000E-02
1038.897 2.3406001E-02
1039.380 1.5879000E-02
1039.862 1.6430000E-02
1040.344 9.7949998E-03
1040.826 5.8590001E-03
1041.308 2.3409000E-02
1041.790 5.1158000E-02
1042.272 6.8695001E-02
1042.754 6.3793004E-02
1043.237 5.3339999E-02
1043.719 4.7970999E-02
1044.201 4.7667000E-02
1044.683 5.1979002E-02
1045.165 5.9163999E-02
1045.647 7.6335996E-02
1046.129 0.1278620
1046.611 0.1573290
1047.094 0.1375230
1047.576 0.1013300
1048.058 5.7293002E-02
1048.540 2.0099999E-02
1049.022 3.0901000E-02
1049.504 0.1098780
1049.986 0.1689410
1050.468 0.1813840
1050.950 0.1924050
1051.432 0.2192240
1051.915 0.2475190
1052.397 0.2725140
1052.879 0.2880560
1053.361 0.2788470
1053.843 0.2379310
1054.325 0.2005670
1054.807 0.1653300
1055.289 0.1467750
1055.772 0.1530230
1056.254 0.1754590
1056.736 0.2164170
1057.218 0.2655010
1057.700 0.3033230
1058.182 0.3266220
1058.664 0.3390390
1059.146 0.3308020
1059.629 0.3260230
1060.111 0.3433160
1060.593 0.3597970
1061.075 0.3500340
1061.557 0.3269040
1062.039 0.3158610
1062.521 0.3214760
1063.003 0.3454430
1063.485 0.4060250
1063.968 0.4620310
1064.450 0.4922690
1064.932 0.5138310
1065.414 0.5367690
1065.896 0.5632930
1066.378 0.5971890
1066.860 0.6386140
1067.342 0.6747390
1067.824 0.6922830
1068.307 0.7145920
1068.789 0.7457730
1069.271 0.7917650
1069.753 0.8732080
1070.235 0.9656890
1070.717 1.030520
1071.199 1.062024
1071.681 1.077409
1072.164 1.055848
1072.646 1.007946
1073.128 1.178539
1073.610 1.302301
1074.092 1.381753
1074.574 1.281914
1075.056 1.409186
1075.538 1.447196
1076.021 1.483013
1076.503 1.646207
1076.985 1.574434
1077.467 1.735610
1077.949 1.803789
1078.431 1.914541
1078.913 1.932814
1079.395 1.900503
1079.877 1.873135
1080.359 1.854329
1080.842 1.858428
1081.324 1.874951
1081.806 1.922757
1082.288 1.967458
1082.770 1.977238
1083.252 1.969822
1083.734 1.965449
1084.216 1.967937
1084.698 1.983429
1085.181 2.023173
1085.663 2.026117
1086.145 1.927176
1086.627 1.832240
1087.109 1.806125
1087.591 1.814538
1088.073 1.826398
1088.555 1.838464
1089.038 1.856635
1089.520 1.883473
1090.002 1.905402
1090.484 1.921122
1090.966 1.925119
1091.448 1.905846
1091.930 1.881018
1092.412 1.864858
1092.895 1.855215
1093.377 1.846009
1093.859 1.837675
1094.341 1.838737
1094.823 1.861389
1095.305 1.874059
1095.787 1.856407
1096.269 1.832666
1096.751 1.819384
1097.234 1.811697
1097.716 1.797477
1098.198 1.777398
1098.680 1.772299
1099.162 1.810443
1099.644 1.827380
1100.126 1.778494
1100.608 1.730068
1101.090 1.728745
1101.573 1.747829
1102.055 1.758059
1102.537 1.751189
1103.019 1.718069
1103.501 1.646704
1103.983 1.572072
1104.465 1.491666
1104.947 1.421937
1105.430 1.371357
1105.912 1.336323
1106.394 1.319971
1106.876 1.311276
1107.358 1.312019
1107.840 1.330800
1108.322 1.326915
1108.804 1.256289
1109.286 1.202396
1109.769 1.208034
1110.251 1.220562
1110.733 1.218497
1111.215 1.191325
1111.697 1.129876
1112.179 1.024040
1112.661 0.9666430
1113.143 1.016246
1113.625 1.038181
1114.108 0.9958200
1114.590 0.9403660
1115.072 0.8924200
1115.554 0.8525280
1116.036 0.8140230
1116.518 0.7783440
1117.000 0.7607230
1117.482 0.7813760
1117.965 0.7823730
1118.447 0.7344720
1118.929 0.7118000
1119.411 0.7872880
1119.893 0.8570470
1120.375 0.7952820
1120.857 0.6421310
1121.339 0.5747690
1121.822 0.6249320
1122.304 0.6640730
1122.786 0.7015590
1123.268 0.7066400
1123.750 0.6520890
1124.232 0.5890360
1124.714 0.5527910
1125.196 0.5348080
1125.678 0.5175240
1126.161 0.5009360
1126.643 0.4849030
1127.125 0.4705580
1127.607 0.4470430
1128.089 0.4056970
1128.571 0.3817030
1129.053 0.3989360
1129.535 0.4292240
1130.017 0.4363070
1130.500 0.4203960
1130.982 0.3710090
1131.464 0.2822330
1131.946 0.2612380
1132.428 0.3241490
1132.910 0.3678360
1133.392 0.3526270
1133.874 0.3179090
1134.357 0.2993130
1134.839 0.2905500
1135.321 0.2723040
1135.803 0.2464100
1136.285 0.2424560
1136.767 0.2586380
1137.249 0.2619150
1137.731 0.2444440
1138.214 0.2055520
1138.696 0.1423050
1139.178 8.7769002E-02
1139.660 9.9560998E-02
1140.142 0.1526760
1140.624 0.1745750
1141.106 0.1718830
1141.588 0.1668120
1142.070 0.1623790
1142.552 0.1519570
1143.035 0.1337720
1143.517 0.1174100
1143.999 0.1104900
1144.481 0.1119260
1144.963 0.1244040
1145.445 0.1418500
1145.927 0.1593960
1146.409 0.1705890
1146.892 0.1562990
1147.374 0.1176530
1147.856 8.2721002E-02
1148.338 6.6597998E-02
1148.820 6.1205000E-02
1149.302 6.7970000E-02
1149.784 7.3583998E-02
1150.266 5.9921999E-02
1150.749 3.8412999E-02
1151.231 2.1263000E-02
1151.713 1.3308000E-02
1152.195 2.3695000E-02
1152.677 5.5530999E-02
1153.159 8.5306004E-02
1153.641 0.1108490
1154.123 0.1174640
1154.605 8.0170996E-02
1155.088 3.6081001E-02
1155.570 1.6874000E-02
1156.052 1.3151000E-02
1156.534 7.4930000E-03
1157.016 2.2700001E-03
1157.498 1.1105000E-02
1157.980 1.8119000E-02
1158.462 2.3316000E-02
1158.944 3.9537001E-02
1159.427 3.8079001E-02
1159.909 2.3397001E-02
1160.391 8.3292998E-02
1160.873 7.0712000E-02
1161.355 1.0864000E-02
1161.837 1.6940000E-02
1162.319 7.8599999E-04
1162.801 1.0144000E-02
1163.284 9.7380001E-03
1163.766 6.9430999E-02
1164.248 3.7852000E-02
1164.730 9.8320000E-02
1165.212 0.1144870
1165.694 4.6324998E-02
1166.176 2.1364000E-02
1166.658 2.5340000E-03
1167.141 3.0196000E-02
1167.623 6.9628999E-02
1168.105 6.5498002E-02
1168.587 3.2269001E-02
1169.069 3.7051000E-02
1169.551 8.4650002E-02
1170.033 3.9949000E-02
1170.515 2.3588000E-02
1170.997 9.9400997E-02
1171.479 0.1241690
1171.962 6.8719998E-02
1172.444 0.1187300
1172.926 1.9694000E-02
1173.408 7.2410000E-03
1173.890 0.1055390
1174.372 5.4706998E-02
1174.854 0.1063740
1175.336 0.1189980
1175.819 4.5816999E-02
1176.301 9.7934999E-02
1176.783 5.7906002E-02
1177.265 0.1176330
1177.747 0.1105030
1178.229 5.4609001E-02
1178.711 3.5886999E-02
1179.193 6.5329000E-02
1179.676 7.4171998E-02
1180.158 1.9451000E-02
1180.640 2.9410001E-02
1181.122 1.7824000E-02
1181.604 8.1975996E-02
1182.086 7.0317000E-02
1182.568 2.3848001E-02
1183.050 5.8670002E-03
1183.532 1.4809000E-02
1184.015 1.0231000E-02
1184.497 4.9810000E-03
1184.979 2.1699000E-02
1185.461 4.2146999E-02
1185.943 5.2444000E-02
1186.425 3.7570000E-02
1186.907 2.0173000E-02
1187.389 9.4640004E-03
1187.871 8.8790003E-03
1188.354 3.1782001E-02
1188.836 6.7396998E-02
1189.318 7.4946001E-02
1189.800 3.8187999E-02
1190.282 1.5985999E-02
1190.764 2.9561000E-02
1191.246 3.5461999E-02
1191.728 1.6783001E-02
1192.211 1.9200001E-04
1192.693 2.0900001E-03
1193.175 7.0059998E-03
1193.657 2.3672000E-02
1194.139 4.6704002E-02
1194.621 6.2887996E-02
1195.103 6.8531998E-02
1195.585 9.0095997E-02
1196.068 0.1354380
1196.550 0.1512090
1197.032 0.1174040
1197.514 7.4684002E-02
1197.996 5.2172001E-02
1198.478 4.1087002E-02
1198.960 2.2942999E-02
1199.442 3.0759999E-03
1199.924 1.3829000E-02
1200.406 4.9931001E-02
1200.889 8.0613002E-02
1201.371 0.1019100
1201.853 0.1189840
1202.335 0.1298970
1202.817 0.1314240
1203.299 0.1180300
1203.781 0.1002830
1204.263 8.9258999E-02
1204.746 8.2484998E-02
1205.228 7.4593000E-02
1205.710 6.7101002E-02
1206.192 6.8310998E-02
1206.674 7.2738998E-02
1207.156 7.8239001E-02
1207.638 8.3269998E-02
1208.120 8.1661999E-02
1208.603 5.1084001E-02
1209.085 3.7769999E-02
1209.567 9.3937002E-02
1210.049 0.1483990
1210.531 0.1374050
1211.013 9.7159997E-02
1211.495 7.2610997E-02
1211.977 6.4636998E-02
1212.459 7.1869999E-02
1212.942 0.1045040
1213.424 0.1224250
1213.906 0.1012840
1214.388 9.8165996E-02
1214.870 0.1400530
1215.352 0.1771600
1215.834 0.1798650
1216.316 0.1638530
1216.798 0.1497020
1217.281 0.1376340
1217.763 0.1203250
1218.245 9.1375999E-02
1218.727 9.6500002E-02
1219.209 0.1420280
1219.691 0.1630270
1220.173 0.1425290
1220.655 0.1157240
1221.138 0.1057290
1221.620 0.1025760
1222.102 0.1060180
1222.584 0.1138320
1223.066 0.1395640
1223.548 0.1689820
1224.030 0.1676720
1224.512 0.1430590
1224.995 0.1534550
1225.477 0.2077040
1225.959 0.2117540
1226.441 0.1101140
1226.923 1.6866000E-02
1227.405 4.0894002E-02
1227.887 9.8412998E-02
1228.369 0.1399000
1228.851 0.1598850
1229.333 0.1451580
1229.816 0.1103160
1230.298 8.1722997E-02
1230.780 6.5466002E-02
1231.262 6.0293999E-02
1231.744 6.4037003E-02
1232.226 8.0352999E-02
1232.708 0.1187520
1233.190 0.1493800
1233.673 0.1706410
1234.155 0.1673490
1234.637 0.1208350
1235.119 5.6906998E-02
1235.601 3.4710001E-02
1236.083 5.7091001E-02
1236.565 7.1236998E-02
1237.047 7.3890999E-02
1237.530 8.8685997E-02
1238.012 0.1205150
1238.494 0.1301390
1238.976 0.1020060
1239.458 7.4341998E-02
1239.940 7.7775002E-02
1240.422 9.3989998E-02
1240.904 8.7062001E-02
1241.386 7.2801001E-02
1241.869 0.1032600
1242.351 0.1551160
1242.833 0.1702850
1243.315 0.1506700
1243.797 0.1223370
1244.279 9.8185003E-02
1244.761 9.4341002E-02
1245.243 0.1295650
1245.725 0.1628180
1246.208 0.1674680
1246.690 0.1609030
1247.172 0.1584890
1247.654 0.1484810
1248.136 0.1044170
1248.618 4.6870999E-02
1249.100 2.6380001E-02
1249.582 4.9525999E-02
1250.065 6.5059997E-02
1250.547 7.2281003E-02
1251.029 6.7732997E-02
1251.511 4.5687001E-02
1251.993 2.2194000E-02
1252.475 2.8380000E-03
1252.957 1.4829000E-02
1253.439 1.1100000E-04
1253.922 2.9248999E-02
1254.404 4.8202999E-02
1254.886 5.9346002E-02
1255.368 8.4445998E-02
1255.850 0.1196480
1256.332 0.1205480
1256.814 9.0614997E-02
1257.296 9.2040002E-02
1257.778 0.1387570
1258.260 0.1667360
1258.743 0.1309630
1259.225 1.1054000E-02
1259.707 9.4567999E-02
1260.189 0.1535040
1260.671 0.1681270
1261.153 5.8070002E-03
1261.635 7.1608998E-02
1262.117 4.6185002E-02
1262.600 1.7095000E-02
1263.082 0.1155160
1263.564 2.1018000E-02
1264.046 7.5409003E-02
1264.528 7.8867003E-02
1265.010 0.1248790
1265.492 7.8745000E-02
1265.974 6.1105002E-02
1266.457 0.1356460
1266.939 0.1196780
1267.421 0.1542890
1267.903 0.1082770
1268.385 4.1069998E-03
1268.867 1.7878000E-02
1269.349 4.6771001E-02
1269.831 9.9512003E-02
1270.313 0.1311620
1270.796 0.1385960
1271.278 0.1185500
1271.760 0.1147870
1272.242 0.1496740
1272.724 0.1925990
1273.206 0.2208520
1273.688 0.2188970
1274.170 0.1653700
1274.652 9.3975998E-02
1275.135 5.9269000E-02
1275.617 4.9036000E-02
1276.099 7.8860998E-02
1276.581 0.1268780
1277.063 0.1687900
1277.545 0.2013700
1278.027 0.1950670
1278.509 0.1011290
1278.992 4.3655001E-02
1279.474 3.7505999E-02
1279.956 4.7890000E-02
1280.438 7.0151001E-02
1280.920 9.1078997E-02
1281.402 0.1014970
1281.884 9.7882003E-02
1282.366 6.0497001E-02
1282.849 8.0890004E-03
1283.331 1.2079000E-02
1283.813 0.1204590
1284.295 0.1659790
1284.777 0.1359330
1285.259 8.6617999E-02
1285.741 8.2763001E-02
1286.223 7.6421998E-02
1286.705 4.8071999E-02
1287.188 0.0000000E+00
