#Shining_header
#Data type:raman_database
#CAS:Not entered
#Material scientific name:aluminum phosphor oxide
#Manufacturer:Not entered
#Laser model:Not entered
#Spectrometer model:Not entered
#Testing unit:Not entered
#Test time:Not entered
#Other experimental details:Not entered
#Shining_data
0.645 65535
1.918 65535
3.191 33898
4.464 5607
5.736 2039
7.009 1665
8.281 1803
9.553 2012
10.825 2116
12.096 2123
13.368 2148
14.639 2225
15.910 2163
17.181 2164
18.452 2217
19.722 2127
20.992 2195
22.262 2094
23.532 2186
24.802 2214
26.071 2341
27.340 2467
28.609 2339
29.878 2157
31.147 2108
32.415 2088
33.683 2125
34.951 2246
36.219 2380
37.487 2445
38.754 2338
40.021 2231
41.288 2194
42.555 2280
43.822 2447
45.088 2349
46.354 2299
47.620 2359
48.886 2626
50.152 2705
51.417 2550
52.682 2648
53.947 2742
55.212 3178
56.476 4423
57.741 8379
59.005 13302
60.269 13458
61.533 8727
62.796 4883
64.060 3499
65.323 3139
66.586 3268
67.849 3635
69.111 4198
70.374 5843
71.636 9671
72.898 13069
74.160 12344
75.422 8820
76.683 5641
77.944 3813
79.205 3140
80.466 2803
81.727 2625
82.987 2942
84.247 2863
85.507 2622
86.767 2469
88.027 2403
89.286 2588
90.545 2735
91.804 2984
93.063 3164
94.322 3588
95.580 4727
96.839 5572
98.097 5329
99.355 4575
100.612 3752
101.870 3383
103.127 3253
104.384 3439
105.641 3793
106.898 4359
108.154 5063
109.411 5411
110.667 5569
111.923 6086
113.178 5877
114.434 5238
115.689 3880
116.944 3421
118.199 3151
119.454 3127
120.708 3409
121.963 3826
123.217 5349
124.471 8896
125.725 12179
126.978 12570
128.232 10212
129.485 9613
130.738 12299
131.991 14836
133.243 14630
134.496 12159
135.748 10051
137.000 8750
138.252 7416
139.503 6036
140.755 5164
142.006 4382
143.257 4016
144.508 3653
145.759 3719
147.009 3619
148.259 3691
149.509 3774
150.759 3952
152.009 4068
153.259 4357
154.508 4233
155.757 3828
157.006 3911
158.255 3663
159.503 3828
160.752 3832
162.000 3968
163.248 4157
164.496 4263
165.743 4411
166.991 4642
168.238 4868
169.485 5266
170.732 5652
171.978 6017
173.225 6596
174.471 7322
175.717 7918
176.963 9027
178.209 9889
179.454 10182
180.699 9702
181.944 9340
183.189 9890
184.434 11002
185.679 12374
186.923 13628
188.167 14878
189.411 15337
190.655 15458
191.899 14902
193.142 13543
194.385 11858
195.628 10192
196.871 8339
198.114 6690
199.356 5953
200.598 5755
201.840 5654
203.082 5866
204.324 6166
205.566 6734
206.807 7390
208.048 7683
209.289 8526
210.530 8882
211.770 9879
213.011 10562
214.251 11136
215.491 11930
216.731 12698
217.970 13646
219.210 14497
220.449 15858
221.688 16799
222.927 18052
224.166 18714
225.404 19946
226.642 20484
227.881 20463
229.119 19786
230.356 18523
231.594 17126
232.831 15512
234.068 14745
235.305 13817
236.542 12728
237.779 11749
239.015 11169
240.252 10463
241.488 9597
242.724 8638
243.959 7564
245.195 7054
246.430 6740
247.665 6030
248.900 5665
250.135 5300
251.370 4994
252.604 4889
253.838 4636
255.072 4399
256.306 4185
257.540 4191
258.773 4076
260.007 3804
261.240 3716
262.473 3545
263.705 3469
264.938 3451
266.170 3343
267.403 3321
268.635 3267
269.866 3145
271.098 3082
272.329 3137
273.561 2920
274.792 2942
276.023 2982
277.253 2903
278.484 2815
279.714 2879
280.944 2821
282.174 2808
283.404 2893
284.634 2897
285.863 3042
287.093 3165
288.322 3374
289.551 3609
290.779 3767
292.008 3820
293.236 3618
294.464 3316
295.692 3216
296.920 2936
298.148 3018
299.375 2996
300.602 2895
301.829 2868
303.056 2762
304.283 2717
305.509 2776
306.736 2673
307.962 2718
309.188 2737
310.414 2693
311.639 2655
312.865 2620
314.090 2687
315.315 2577
316.540 2587
317.765 2624
318.989 2533
320.214 2553
321.438 2508
322.662 2532
323.885 2568
325.109 2536
326.333 2531
327.556 2549
328.779 2552
330.002 2489
331.224 2563
332.447 2652
333.669 2501
334.892 2488
336.114 2731
337.335 2563
338.557 2612
339.779 2755
341.000 2647
342.221 2945
343.442 2959
344.663 3335
345.883 3940
347.104 4388
348.324 4565
349.544 4273
350.764 3993
351.983 3567
353.203 3430
354.422 3419
355.641 3304
356.860 3372
358.079 3710
359.298 4219
360.516 4854
361.734 5679
362.952 5699
364.170 5248
365.388 4314
366.606 3779
367.823 3538
369.040 3333
370.257 3218
371.474 3203
372.691 3052
373.907 3172
375.123 3151
376.340 3387
377.556 3586
378.771 4040
379.987 4788
381.202 6260
382.418 7621
383.633 7633
384.847 6639
386.062 5958
387.277 5871
388.491 6913
389.705 7845
390.919 7964
392.133 7131
393.347 5817
394.560 4632
395.774 3963
396.987 3468
398.200 3359
399.412 3262
400.625 3066
401.838 3001
403.050 2869
404.262 2888
405.474 2830
406.685 2798
407.897 2825
409.108 2721
410.320 2810
411.531 2922
412.742 2676
413.952 2811
415.163 2905
416.373 2902
417.583 2987
418.793 3036
420.003 3070
421.213 3192
422.422 3194
423.631 3447
424.841 3592
426.050 3922
427.258 4700
428.467 5635
429.675 7133
430.884 8713
432.092 9874
433.300 10004
434.507 9347
435.715 8403
436.922 7964
438.130 8141
439.337 9466
440.543 11497
441.750 14959
442.957 20117
444.163 24872
445.369 25249
446.575 20562
447.781 14568
448.987 10842
450.192 8005
451.398 6270
452.603 5204
453.808 4553
455.013 4147
456.217 3972
457.422 4002
458.626 3711
459.830 3851
461.034 3856
462.238 4128
463.441 4405
464.645 4920
465.848 5466
467.051 5914
468.254 6797
469.457 8231
470.660 10677
471.862 15218
473.064 22148
474.266 27932
475.468 28117
476.670 22880
477.871 16569
479.073 12627
480.274 10871
481.475 10474
482.676 11704
483.877 12841
485.077 13892
486.278 13178
487.478 11631
488.678 9456
489.878 8078
491.078 6957
492.277 6366
493.476 6334
494.676 6082
495.875 5818
497.074 5379
498.272 4899
499.471 4396
500.669 4093
501.867 3864
503.065 3756
504.263 3573
505.461 3587
506.658 3478
507.856 3290
509.053 3259
510.250 3282
511.447 3117
512.644 3229
513.840 2997
515.036 3069
516.233 3109
517.429 3029
518.624 3006
519.820 3141
521.016 2871
522.211 3041
523.406 3061
524.601 2922
525.796 2964
526.991 2930
528.185 2805
529.379 2887
530.574 2911
531.768 2934
532.961 2934
534.155 2878
535.349 2955
536.542 2996
537.735 3014
538.928 3151
540.121 3171
541.314 2987
542.506 3180
543.699 3054
544.891 3157
546.083 3181
547.275 3199
548.466 3415
549.658 3594
550.849 3791
552.040 4156
553.231 4725
554.422 5779
555.613 7501
556.804 9665
557.994 11908
559.184 12349
560.374 10923
561.564 9058
562.754 7123
563.943 5738
565.133 4990
566.322 4447
567.511 3981
568.700 3672
569.889 3532
571.077 3539
572.266 3375
573.454 3326
574.642 3252
575.830 3156
577.018 3224
578.205 3138
579.393 3015
580.580 3001
581.767 3027
582.954 3006
584.141 2947
585.327 2982
586.514 2893
587.700 2828
588.886 2842
590.072 2897
591.258 2885
592.443 2883
593.629 2813
594.814 2881
595.999 2907
597.184 2864
598.369 2853
599.554 2815
600.738 2815
601.923 2880
603.107 2935
604.291 2974
605.475 2887
606.658 2890
607.842 2858
609.025 2910
610.208 2942
611.391 2900
612.574 2850
613.757 2868
614.940 2754
616.122 2852
617.304 2887
618.486 2851
619.668 2983
620.850 2784
622.032 2978
623.213 2942
624.394 2905
625.575 2896
626.756 2869
627.937 2926
629.118 2976
630.298 2893
631.479 3010
632.659 2911
633.839 2925
635.019 3042
636.198 3030
637.378 3034
638.557 3129
639.736 3236
640.915 3273
642.094 3462
643.273 3717
644.452 4064
645.630 4227
646.808 4574
647.986 4710
649.164 4636
650.342 4535
651.520 4309
652.697 3975
653.874 3670
655.052 3448
656.229 3364
657.405 3289
658.582 3113
659.759 3076
660.935 3009
662.111 3136
663.287 3037
664.463 2867
665.639 2929
666.814 2761
667.990 2904
669.165 2860
670.340 3011
671.515 2846
672.690 2834
673.864 2899
675.039 2837
676.213 2875
677.387 2877
678.561 2741
679.735 2758
680.909 2873
682.082 2910
683.256 2872
684.429 2888
685.602 2929
686.775 2915
687.948 2831
689.120 2784
690.293 2871
691.465 2949
692.637 2752
693.809 2886
694.981 2904
696.152 2949
697.324 2925
698.495 2947
699.666 2964
700.837 2999
702.008 3089
703.179 3028
704.350 3131
705.520 3118
706.690 3047
707.860 3127
709.030 3143
710.200 3201
711.370 3119
712.539 3295
713.709 3132
714.878 3182
716.047 3144
717.216 3014
718.384 3078
719.553 3090
720.721 3137
721.889 3080
723.058 3012
724.226 3024
725.393 3210
726.561 3153
727.728 3207
728.896 3179
730.063 3225
731.230 3306
732.397 3477
733.563 3589
734.730 3683
735.896 3628
737.063 3706
738.229 3705
739.395 3743
740.561 3674
741.726 3801
742.892 3973
744.057 4224
745.222 4467
746.387 4542
747.552 4553
748.717 4427
749.881 4355
751.046 3972
752.210 3737
753.374 3523
754.538 3470
755.702 3369
756.866 3348
758.029 3261
759.193 3288
760.356 3320
761.519 3189
762.682 3072
763.844 3137
765.007 3096
766.169 2973
767.332 2987
768.494 3012
769.656 2953
770.818 3026
771.979 2973
773.141 3112
774.302 2958
775.464 2891
776.625 3021
777.786 2909
778.946 2842
780.107 2985
781.268 2837
782.428 2927
783.588 2954
784.748 2922
785.908 3009
787.068 2871
788.227 2852
789.387 2971
790.546 2994
791.705 2921
792.864 2921
794.023 2947
795.182 2869
796.340 2872
797.499 2867
798.657 2964
799.815 2929
800.973 3002
802.131 2881
803.289 3058
804.446 2969
805.603 2954
806.761 2999
807.918 2990
809.075 2979
810.231 3005
811.388 2991
812.544 3095
813.701 2880
814.857 3062
816.013 3054
817.169 2907
818.324 3019
819.480 2949
820.635 2989
821.791 3067
822.946 2854
824.101 2995
825.256 3083
826.410 2999
827.565 3017
828.719 2991
829.874 2962
831.028 2980
832.182 2903
833.335 2919
834.489 3000
835.643 3026
836.796 3105
837.949 3013
839.102 3168
840.255 2977
841.408 3060
842.561 3114
843.713 3030
844.866 3029
846.018 3019
847.170 3032
848.322 3103
849.473 3045
850.625 3078
851.777 2961
852.928 3166
854.079 3020
855.230 3100
856.381 3147
857.532 2979
858.682 3034
859.833 3171
860.983 3034
862.133 3056
863.283 3087
864.433 3116
865.583 3056
866.732 2969
867.882 3199
869.031 3037
870.180 3099
871.329 3091
872.478 3021
873.627 3105
874.775 3072
875.924 3083
877.072 3058
878.220 3111
879.368 3270
880.516 3094
881.664 3153
882.811 3148
883.959 3113
885.106 3170
886.253 3158
887.400 3085
888.547 3205
889.694 3140
890.840 2987
891.987 3100
893.133 3105
894.279 3068
895.425 3080
896.571 3168
897.716 3109
898.862 3139
900.007 3156
901.153 3327
902.298 3128
903.443 3106
904.588 3146
905.732 3126
906.877 3099
908.021 3068
909.166 3228
910.310 3043
911.454 3185
912.598 3107
913.741 3146
914.885 3142
916.028 3222
917.171 3108
918.315 3151
919.458 3112
920.600 3131
921.743 3137
922.886 3296
924.028 3102
925.170 3139
926.313 3107
927.455 3034
928.596 3068
929.738 3131
930.880 3063
932.021 3104
933.162 3133
934.304 3120
935.445 3142
936.586 3124
937.726 3281
938.867 3225
940.007 3161
941.148 3208
942.288 3217
943.428 3175
944.568 3208
945.707 3074
946.847 3206
947.987 3183
949.126 3182
950.265 3170
951.404 3110
952.543 3216
953.682 3171
954.820 3201
955.959 3162
957.097 3210
958.236 3128
959.374 3177
960.512 3140
961.649 3221
962.787 3212
963.925 3132
965.062 3081
966.199 3173
967.336 3174
968.473 3206
969.610 3098
970.747 3208
971.883 3129
973.020 3112
974.156 3070
975.292 3244
976.428 3231
977.564 3242
978.700 3161
979.835 3105
980.971 3241
982.106 3269
983.241 3267
984.376 3269
985.511 3104
986.646 3261
987.780 3236
988.915 3211
990.049 3096
991.184 3068
992.318 3251
993.452 3215
994.585 3217
995.719 3164
996.853 3218
997.986 3287
999.119 3238
1000.252 3140
1001.385 3272
1002.518 3276
1003.651 3273
1004.783 3212
1005.916 3190
1007.048 3378
1008.180 3312
1009.312 3284
1010.444 3177
1011.576 3334
1012.707 3314
1013.839 3253
1014.970 3241
1016.101 3215
1017.233 3329
1018.363 3335
1019.494 3221
1020.625 3218
1021.755 3242
1022.886 3309
1024.016 3352
1025.146 3294
1026.276 3350
1027.406 3429
1028.536 3386
1029.665 3341
1030.795 3305
1031.924 3286
1033.053 3328
1034.182 3365
1035.311 3433
1036.440 3353
1037.569 3365
1038.697 3364
1039.826 3304
1040.954 3397
1042.082 3320
1043.210 3357
1044.338 3400
1045.465 3456
1046.593 3418
1047.720 3493
1048.848 3485
1049.975 3437
1051.102 3487
1052.229 3490
1053.355 3435
1054.482 3514
1055.609 3575
1056.735 3378
1057.861 3546
1058.987 3509
1060.113 3472
1061.239 3549
1062.365 3663
1063.490 3538
1064.616 3494
1065.741 3567
1066.866 3674
1067.991 3653
1069.116 3663
1070.241 3698
1071.366 3847
1072.490 3797
1073.614 3903
1074.739 3927
1075.863 3978
1076.987 4099
1078.111 4066
1079.234 4237
1080.358 4301
1081.481 4421
1082.605 4512
1083.728 4819
1084.851 5107
1085.974 5331
1087.096 5581
1088.219 5960
1089.342 6623
1090.464 7388
1091.586 8262
1092.708 8787
1093.830 8495
1094.952 8149
1096.074 7718
1097.196 7766
1098.317 8037
1099.438 8830
1100.560 9851
1101.681 11697
1102.802 13987
1103.922 16293
1105.043 17625
1106.164 18586
1107.284 19361
1108.404 20615
1109.525 21753
1110.645 22957
1111.765 24212
1112.884 25474
1114.004 27760
1115.123 30822
1116.243 31300
1117.362 30437
1118.481 27123
1119.600 21498
1120.719 17524
1121.838 14373
1122.956 11952
1124.075 10511
1125.193 9362
1126.311 8127
1127.430 7581
1128.548 6784
1129.665 6342
1130.783 5986
1131.901 5788
1133.018 5478
1134.135 5158
1135.253 5013
1136.370 4681
1137.487 4706
1138.603 4651
1139.720 4375
1140.837 4180
1141.953 4267
1143.069 4168
1144.185 4116
1145.301 4229
1146.417 4076
1147.533 4123
1148.649 4005
1149.764 4150
1150.880 4134
1151.995 3997
1153.110 4231
1154.225 4317
1155.340 4179
1156.455 4397
1157.569 4216
1158.684 4384
1159.798 4316
1160.912 4548
1162.027 4703
1163.141 4565
1164.254 4526
1165.368 4484
1166.482 4528
1167.595 4306
1168.709 4264
1169.822 4263
1170.935 4096
1172.048 4220
1173.161 4150
1174.273 4012
1175.386 3942
1176.498 4064
1177.611 3928
1178.723 3736
1179.835 3813
1180.947 3819
1182.059 3761
1183.171 3795
1184.282 3614
1185.394 3804
1186.505 3774
1187.616 3659
1188.727 3719
1189.838 3614
1190.949 3663
1192.060 3730
1193.170 3645
1194.281 3685
1195.391 3741
1196.501 3711
1197.611 3611
1198.721 3569
1199.831 3750
1200.941 3753
1202.050 3810
1203.160 3779
1204.269 3646
1205.378 3859
1206.487 3876
1207.596 3842
1208.705 3937
1209.814 3924
1210.922 4220
1212.031 4104
1213.139 4376
1214.247 4421
1215.356 4486
1216.463 4676
1217.571 4909
1218.679 5014
1219.787 5327
1220.894 5332
1222.001 5442
1223.109 5735
1224.216 6143
1225.323 6545
1226.430 6864
1227.536 6994
1228.643 6974
1229.749 6758
1230.856 6315
1231.962 5788
1233.068 5498
1234.174 5007
1235.280 4776
1236.386 4433
1237.491 4240
1238.597 4249
1239.702 4110
1240.807 3973
1241.912 4058
1243.017 3884
1244.122 3791
1245.227 3831
1246.332 3723
1247.436 3736
1248.540 3669
1249.645 3551
1250.749 3589
1251.853 3596
1252.957 3703
1254.061 3609
1255.164 3710
1256.268 3566
1257.371 3683
1258.474 3576
1259.578 3607
1260.681 3644
1261.784 3554
1262.886 3475
1263.989 3523
1265.092 3530
1266.194 3522
1267.296 3612
1268.399 3420
1269.501 3568
1270.603 3533
1271.704 3566
1272.806 3559
1273.908 3558
1275.009 3493
1276.110 3602
1277.212 3522
1278.313 3442
1279.414 3459
1280.515 3500
1281.615 3553
1282.716 3528
1283.816 3485
1284.917 3579
1286.017 3511
1287.117 3387
1288.217 3448
1289.317 3528
1290.417 3614
1291.517 3484
1292.616 3532
1293.716 3605
1294.815 3501
1295.914 3613
1297.013 3498
1298.112 3441
1299.211 3494
1300.310 3596
