#Shining_header
#Data type:raman_database
#CAS:Not entered
#Material scientific name:magnesium silicon oxide
#Manufacturer:Not entered
#Laser model:Not entered
#Spectrometer model:Not entered
#Testing unit:Not entered
#Test time:Not entered
#Other experimental details:Not entered
#Shining_data
49.283 4309
50.545 4327
51.808 4291
53.070 4282
54.332 4276
55.594 4197
56.856 4225
58.118 4194
59.379 4356
60.641 4365
61.902 4316
63.163 4240
64.423 4244
65.684 4157
66.944 4273
68.205 4252
69.465 4221
70.724 4264
71.984 4257
73.244 4280
74.503 4292
75.762 4303
77.021 4310
78.280 4201
79.539 4235
80.797 4269
82.055 4259
83.313 4333
84.571 4312
85.829 4234
87.087 4197
88.344 4272
89.601 4226
90.858 4336
92.115 4317
93.372 4304
94.628 4283
95.885 4253
97.141 4276
98.397 4361
99.653 4308
100.908 4334
102.164 4308
103.419 4344
104.674 4371
105.929 4483
107.184 4483
108.438 4415
109.693 4352
110.947 4311
112.201 4337
113.455 4378
114.708 4345
115.962 4407
117.215 4426
118.468 4639
119.721 5026
120.974 5774
122.227 6000
123.479 5455
124.731 4577
125.984 4343
127.235 4261
128.487 4236
129.739 4204
130.990 4259
132.241 4266
133.492 4242
134.743 4252
135.994 4326
137.245 4303
138.495 4341
139.745 4461
140.995 4545
142.245 4888
143.494 5252
144.744 5207
145.993 4856
147.242 4560
148.491 4374
149.740 4314
150.989 4360
152.237 4350
153.485 4335
154.733 4402
155.981 4599
157.229 4933
158.476 5055
159.724 4774
160.971 4395
162.218 4286
163.465 4291
164.711 4344
165.958 4315
167.204 4172
168.450 4206
169.696 4212
170.942 4207
172.188 4251
173.433 4249
174.678 4254
175.924 4170
177.168 4170
178.413 4234
179.658 4237
180.902 4198
182.146 4224
183.390 4264
184.634 4231
185.878 4352
187.121 4348
188.365 4370
189.608 4448
190.851 4478
192.094 4595
193.336 4822
194.579 5467
195.821 5778
197.063 5686
198.305 5229
199.547 4905
200.789 4636
202.030 4751
203.271 4718
204.512 4821
205.753 4850
206.994 4848
208.235 4882
209.475 4666
210.715 4415
211.955 4416
213.195 4291
214.435 4332
215.674 4305
216.914 4374
218.153 4287
219.392 4277
220.631 4255
221.869 4226
223.108 4292
224.346 4288
225.584 4288
226.822 4324
228.060 4326
229.298 4378
230.535 4396
231.772 4484
233.010 4608
234.246 4622
235.483 4655
236.720 4644
237.956 4649
239.192 4653
240.428 4846
241.664 5063
242.900 5763
244.136 6588
245.371 7209
246.606 7066
247.841 6428
249.076 5528
250.311 4892
251.545 4642
252.780 4512
254.014 4499
255.248 4447
256.482 4380
257.715 4375
258.949 4377
260.182 4315
261.415 4330
262.648 4256
263.881 4245
265.114 4223
266.346 4251
267.578 4297
268.810 4274
270.042 4295
271.274 4294
272.506 4364
273.737 4341
274.968 4364
276.199 4390
277.430 4619
278.661 4632
279.891 4681
281.122 4556
282.352 4497
283.582 4387
284.812 4332
286.042 4321
287.271 4339
288.501 4375
289.730 4406
290.959 4302
292.188 4242
293.416 4291
294.645 4300
295.873 4358
297.101 4412
298.329 4344
299.557 4452
300.785 4479
302.012 4658
303.239 4751
304.467 4783
305.694 4724
306.920 4601
308.147 4527
309.373 4452
310.600 4414
311.826 4366
313.052 4410
314.277 4372
315.503 4413
316.728 4405
317.954 4439
319.179 4511
320.404 4559
321.628 4694
322.853 4852
324.077 5058
325.302 5265
326.526 5238
327.750 4958
328.973 4852
330.197 4905
331.420 4846
332.643 4965
333.867 4925
335.089 5046
336.312 5182
337.535 5470
338.757 5972
339.979 6616
341.201 7745
342.423 8689
343.645 9042
344.866 8757
346.088 8273
347.309 8040
348.530 7623
349.751 6730
350.971 6028
352.192 5693
353.412 5253
354.632 4978
355.852 4814
357.072 4744
358.292 4697
359.511 4689
360.730 4613
361.950 4603
363.168 4601
364.387 4693
365.606 4786
366.824 4924
368.043 5376
369.261 5860
370.479 6274
371.697 6350
372.914 5964
374.132 5550
375.349 5202
376.566 4949
377.783 4762
379.000 4733
380.216 4691
381.433 4639
382.649 4642
383.865 4626
385.081 4642
386.297 4906
387.512 5008
388.728 5053
389.943 4985
391.158 4802
392.373 4685
393.588 4646
394.802 4712
396.017 4772
397.231 4794
398.445 4701
399.659 4726
400.873 4778
402.086 4969
403.300 5082
404.513 5379
405.726 5462
406.939 5322
408.152 5178
409.364 4970
410.577 4799
411.789 4723
413.001 4760
414.213 4808
415.424 4811
416.636 4981
417.847 5082
419.059 5107
420.270 5102
421.481 4959
422.691 4812
423.902 4697
425.112 4690
426.322 4622
427.532 4607
428.742 4795
429.952 4836
431.162 5119
432.371 5302
433.580 5348
434.789 5203
435.998 4943
437.207 4727
438.415 4600
439.624 4537
440.832 4460
442.040 4510
443.248 4468
444.455 4420
445.663 4462
446.870 4367
448.078 4411
449.285 4392
450.491 4529
451.698 4742
452.905 4851
454.111 4753
455.317 4697
456.523 4549
457.729 4466
458.935 4362
460.140 4384
461.346 4366
462.551 4385
463.756 4433
464.961 4512
466.166 4455
467.370 4455
468.575 4403
469.779 4367
470.983 4407
472.187 4406
473.390 4291
474.594 4279
475.797 4324
477.000 4346
478.204 4437
479.406 4515
480.609 4420
481.812 4489
483.014 4419
484.216 4385
485.418 4353
486.620 4385
487.822 4349
489.023 4340
490.225 4298
491.426 4268
492.627 4367
493.828 4290
495.029 4286
496.229 4273
497.430 4333
498.630 4333
499.830 4312
501.030 4272
502.230 4327
503.429 4315
504.628 4304
505.828 4383
507.027 4324
508.226 4387
509.424 4372
510.623 4458
511.821 4432
513.020 4635
514.218 4795
515.416 4626
516.613 4716
517.811 4663
519.008 4683
520.206 4753
521.403 4715
522.600 4840
523.796 4864
524.993 4850
526.189 4788
527.386 4798
528.582 4886
529.778 4815
530.973 4734
532.169 4641
533.364 4657
534.560 4636
535.755 4540
536.950 4603
538.145 4490
539.339 4511
540.534 4470
541.728 4604
542.922 4644
544.116 4717
545.310 4732
546.503 4717
547.697 4639
548.890 4547
550.083 4537
551.276 4497
552.469 4586
553.662 4548
554.854 4546
556.047 4609
557.239 4590
558.431 4494
559.622 4539
560.814 4466
562.006 4481
563.197 4434
564.388 4431
565.579 4301
566.770 4476
567.961 4314
569.151 4393
570.342 4438
571.532 4409
572.722 4402
573.912 4389
575.101 4393
576.291 4455
577.480 4484
578.669 4450
579.858 4610
581.047 4619
582.236 4718
583.425 4771
584.613 4652
585.801 4747
586.989 4685
588.177 4557
589.365 4510
590.553 4474
591.740 4496
592.927 4502
594.114 4492
595.301 4475
596.488 4502
597.675 4537
598.861 4521
600.047 4430
601.233 4446
602.419 4383
603.605 4303
604.791 4387
605.976 4348
607.161 4467
608.347 4370
609.532 4376
610.716 4394
611.901 4375
613.086 4418
614.270 4327
615.454 4447
616.638 4336
617.822 4423
619.006 4395
620.189 4440
621.372 4421
622.556 4387
623.739 4332
624.921 4473
626.104 4360
627.287 4475
628.469 4456
629.651 4497
630.833 4397
632.015 4404
633.197 4452
634.379 4396
635.560 4395
636.741 4439
637.922 4470
639.103 4537
640.284 4493
641.465 4478
642.645 4489
643.825 4591
645.005 4590
646.185 4603
647.365 4672
648.545 4683
649.724 4669
650.903 4633
652.083 4756
653.262 4798
654.440 4881
655.619 5049
656.798 5072
657.976 5312
659.154 5581
660.332 5872
661.510 6322
662.688 6701
663.865 7229
665.043 7676
666.220 7935
667.397 7799
668.574 7561
669.750 6949
670.927 6596
672.103 6336
673.280 6012
674.456 5995
675.632 5752
676.807 5875
677.983 5678
679.158 5856
680.334 5974
681.509 6262
682.684 6499
683.859 6838
685.033 7261
686.208 7988
687.382 8413
688.556 8835
689.730 9157
690.904 9034
692.078 8545
693.251 7668
694.425 7037
695.598 6555
696.771 5951
697.944 5531
699.116 5368
700.289 5219
701.461 5065
702.634 4858
703.806 4828
704.978 4890
706.149 4755
707.321 4724
708.492 4620
709.664 4640
710.835 4591
712.006 4560
713.176 4474
714.347 4508
715.518 4523
716.688 4493
717.858 4531
719.028 4442
720.198 4449
721.368 4437
722.537 4464
723.706 4407
724.876 4454
726.045 4444
727.214 4419
728.382 4450
729.551 4399
730.719 4434
731.888 4416
733.056 4477
734.224 4474
735.391 4399
736.559 4445
737.726 4443
738.894 4543
740.061 4482
741.228 4399
742.395 4446
743.561 4513
744.728 4440
745.894 4380
747.060 4474
748.226 4439
749.392 4441
750.558 4503
751.723 4483
752.889 4568
754.054 4636
755.219 4622
756.384 4588
757.549 4574
758.713 4492
759.878 4458
761.042 4472
762.206 4454
763.370 4459
764.534 4424
765.698 4382
766.861 4412
768.024 4409
769.188 4359
770.351 4432
771.513 4397
772.676 4461
773.839 4402
775.001 4443
776.163 4377
777.325 4453
778.487 4427
779.649 4467
780.811 4400
781.972 4383
783.133 4481
784.294 4409
785.455 4315
786.616 4395
787.777 4425
788.937 4380
790.098 4429
791.258 4419
792.418 4451
793.578 4404
794.737 4362
795.897 4415
797.056 4452
798.215 4435
799.374 4407
800.533 4373
801.692 4422
802.851 4422
804.009 4376
805.167 4341
806.326 4375
807.483 4431
808.641 4399
809.799 4386
810.956 4496
812.114 4402
813.271 4410
814.428 4447
815.585 4407
816.742 4427
817.898 4429
819.054 4384
820.211 4435
821.367 4439
822.523 4443
823.678 4422
824.834 4428
825.990 4475
827.145 4383
828.300 4374
829.455 4465
830.610 4491
831.764 4468
832.919 4480
834.073 4463
835.228 4403
836.382 4472
837.535 4447
838.689 4454
839.843 4499
840.996 4509
842.149 4537
843.303 4603
844.455 4660
845.608 4735
846.761 4982
847.913 5139
849.066 5204
850.218 5014
851.370 4847
852.522 4658
853.673 4647
854.825 4603
855.976 4543
857.128 4574
858.279 4464
859.430 4470
860.580 4455
861.731 4459
862.881 4464
864.032 4465
865.182 4365
866.332 4454
867.482 4458
868.631 4412
869.781 4486
870.930 4472
872.079 4540
873.229 4412
874.377 4476
875.526 4412
876.675 4377
877.823 4403
878.971 4445
880.120 4437
881.268 4475
882.415 4510
883.563 4509
884.711 4436
885.858 4432
887.005 4351
888.152 4546
889.299 4545
890.446 4547
891.592 4445
892.739 4485
893.885 4527
895.031 4498
896.177 4531
897.323 4559
898.468 4580
899.614 4443
900.759 4509
901.904 4481
903.049 4479
904.194 4430
905.339 4490
906.484 4480
907.628 4501
908.772 4451
909.916 4452
911.060 4469
912.204 4560
913.348 4580
914.491 4456
915.635 4516
916.778 4568
917.921 4572
919.064 4579
920.206 4634
921.349 4718
922.491 4682
923.633 4843
924.776 4892
925.917 4997
927.059 5217
928.201 5191
929.342 5165
930.484 5135
931.625 4973
932.766 4951
933.907 4921
935.047 4983
936.188 4999
937.328 5056
938.469 4994
939.609 4907
940.749 4898
941.888 4814
943.028 4852
944.167 4723
945.307 4675
946.446 4650
947.585 4638
948.724 4603
949.863 4603
951.001 4635
952.140 4590
953.278 4566
954.416 4568
955.554 4572
956.692 4535
957.829 4536
958.967 4488
960.104 4537
961.241 4502
962.378 4559
963.515 4531
964.652 4519
965.788 4571
966.925 4522
968.061 4573
969.197 4585
970.333 4589
971.469 4577
972.604 4557
973.740 4480
974.875 4513
976.010 4600
977.146 4531
978.280 4575
979.415 4613
980.550 4500
981.684 4561
982.818 4700
983.953 4626
985.086 4623
986.220 4661
987.354 4729
988.487 4665
989.621 4653
990.754 4732
991.887 4783
993.020 4787
994.153 4845
995.285 4886
996.418 4983
997.550 4975
998.682 5046
999.814 5183
1000.946 5367
1002.078 5460
1003.209 5632
1004.341 5925
1005.472 6223
1006.603 6671
1007.734 7322
1008.865 8219
1009.995 9430
1011.126 11017
1012.256 12562
1013.386 13209
1014.516 13239
1015.646 11574
1016.776 10048
1017.905 8843
1019.035 7894
1020.164 7364
1021.293 6970
1022.422 6812
1023.551 6725
1024.679 6841
1025.808 7016
1026.936 7108
1028.064 7498
1029.192 7873
1030.320 8509
1031.448 8838
1032.576 9107
1033.703 9211
1034.830 9112
1035.957 9150
1037.084 8535
1038.211 8634
1039.338 8395
1040.464 8010
1041.591 7589
1042.717 7045
1043.843 6543
1044.969 6215
1046.095 5999
1047.220 5601
1048.346 5382
1049.471 5257
1050.596 5123
1051.721 4940
1052.846 4945
1053.971 4909
1055.096 4909
1056.220 4882
1057.344 4877
1058.468 4841
1059.592 4938
1060.716 4986
1061.840 4921
1062.963 4776
1064.087 4660
1065.210 4662
1066.333 4616
1067.456 4557
1068.579 4657
1069.701 4566
1070.824 4561
1071.946 4506
1073.068 4592
1074.190 4502
1075.312 4604
1076.434 4552
1077.555 4509
1078.677 4485
1079.798 4497
1080.919 4501
1082.040 4445
1083.161 4495
1084.281 4409
1085.402 4489
1086.522 4524
1087.642 4495
1088.762 4582
1089.882 4526
1091.002 4519
1092.122 4525
1093.241 4448
1094.360 4479
1095.480 4499
1096.599 4490
1097.717 4509
1098.836 4467
1099.955 4456
1101.073 4419
1102.191 4488
1103.310 4517
1104.427 4490
1105.545 4518
1106.663 4505
1107.780 4482
1108.898 4530
1110.015 4547
1111.132 4471
1112.249 4480
1113.366 4578
1114.482 4521
1115.599 4488
1116.715 4463
1117.831 4431
1118.947 4517
1120.063 4459
1121.179 4445
1122.295 4499
1123.410 4470
1124.525 4467
1125.640 4470
1126.755 4479
1127.870 4484
1128.985 4477
1130.099 4469
1131.214 4498
1132.328 4451
1133.442 4564
1134.556 4383
1135.670 4489
1136.783 4514
1137.897 4448
1139.010 4495
1140.123 4442
1141.236 4495
1142.349 4488
1143.462 4459
1144.575 4446
1145.687 4464
1146.799 4556
1147.912 4429
1149.024 4459
1150.135 4473
1151.247 4502
1152.359 4424
1153.470 4492
1154.581 4459
1155.693 4486
1156.804 4499
1157.914 4442
1159.025 4465
1160.136 4422
1161.246 4439
1162.356 4460
1163.466 4398
1164.576 4440
1165.686 4444
1166.796 4491
1167.905 4512
1169.014 4474
1170.124 4471
1171.233 4452
1172.342 4458
1173.450 4488
1174.559 4461
1175.667 4577
1176.776 4423
1177.884 4483
1178.992 4420
1180.100 4482
1181.207 4425
1182.315 4493
1183.422 4371
1184.530 4479
1185.637 4472
1186.744 4418
1187.851 4436
1188.957 4523
1190.064 4484
1191.170 4475
1192.276 4427
1193.383 4463
1194.488 4475
1195.594 4380
1196.700 4429
1197.805 4415
1198.911 4476
1200.016 4469
loop_
_rod_maintainer_comment.id
_rod_maintainer_comment.author
_rod_maintainer_comment.date
_rod_maintainer_comment.text
#1 mkanzaki 2019-10-15T05:41:33+0300
'Mistake in laser source, argon is correct.'
